{
    "Name": "Galeota et al. 1996, BA2",
    "Type": "Rectangular",
    "fpc": 80.0,
    "fyt": 430.0,
    "fsut": 0.0,
    "fyl": 430.0,
    "fsul": 0.0,
    "Width": 250.0,
    "Depth": 250.0,
    "L_Inflection": 1140.0,
    "L_Measured": 1140.0,
    "TestConfiguration": "Double Ended",
    "AxLoad": 1500.0,
    "P_Delta": "Shear provided",
    "dlb": 10.0,
    "dlb_c": 10.0,
    "nlb": 12.0,
    "cc_per": 30.0,
    "nib_per": 2.0,
    "cc_par": 30.0,
    "nib_par": 2.0,
    "SubType": "RI: Rectangular and interlocking ties",
    "nsl": 4.0,
    "dtb_rcs": 8.0,
    "s_rcs": 100.0,
    "FailureType": "Flexure",
    "data": {
        "disp": [
            0.17,
            0.32,
            0.23,
            0.45,
            0.48,
            0.55,
            0.66,
            0.6,
            0.88,
            1.04,
            0.9,
            1.17,
            1.28,
            1.32,
            1.34,
            1.47,
            1.57,
            1.64,
            1.87,
            1.95,
            2.07,
            1.97,
            2.11,
            2.23,
            2.41,
            2.43,
            2.62,
            2.69,
            2.76,
            3.03,
            3.06,
            3.1,
            3.2,
            3.34,
            3.33,
            3.59,
            3.54,
            3.77,
            3.89,
            3.96,
            4.03,
            4.18,
            4.53,
            4.48,
            4.54,
            4.81,
            4.87,
            5.04,
            5.33,
            5.43,
            5.56,
            5.78,
            5.98,
            6.29,
            6.27,
            6.64,
            6.82,
            7.0,
            7.1,
            7.42,
            7.61,
            7.79,
            7.91,
            8.11,
            8.29,
            8.69,
            8.81,
            9.07,
            9.2,
            9.46,
            9.83,
            9.96,
            10.32,
            10.79,
            11.05,
            11.21,
            11.72,
            11.95,
            12.44,
            12.82,
            13.34,
            13.65,
            14.08,
            14.69,
            15.52,
            16.18,
            16.76,
            16.83,
            16.92,
            16.84,
            16.72,
            16.58,
            16.33,
            16.28,
            16.12,
            15.9,
            15.74,
            15.53,
            15.38,
            15.12,
            14.96,
            14.74,
            14.44,
            14.19,
            13.97,
            13.78,
            13.62,
            13.44,
            13.11,
            12.93,
            12.71,
            12.52,
            12.38,
            12.3,
            11.98,
            11.81,
            11.5,
            11.36,
            11.05,
            10.85,
            10.71,
            10.45,
            10.19,
            10.05,
            9.76,
            9.52,
            9.41,
            9.2,
            9.1,
            8.96,
            8.69,
            8.6,
            8.27,
            8.11,
            7.93,
            7.69,
            7.48,
            7.36,
            7.15,
            6.97,
            6.82,
            6.62,
            6.48,
            6.35,
            6.2,
            5.98,
            5.73,
            5.59,
            5.52,
            5.18,
            5.01,
            4.9,
            4.67,
            4.61,
            4.35,
            4.11,
            3.84,
            3.73,
            3.55,
            3.43,
            3.22,
            3.15,
            2.91,
            2.82,
            2.81,
            2.5,
            2.45,
            2.26,
            2.16,
            2.11,
            1.94,
            1.83,
            1.6,
            1.5,
            1.35,
            1.33,
            1.04,
            0.89,
            0.62,
            0.56,
            0.48,
            0.35,
            0.14,
            -0.12,
            -0.19,
            -0.41,
            -0.43,
            -0.59,
            -0.69,
            -0.9,
            -0.92,
            -1.11,
            -1.21,
            -1.54,
            -1.66,
            -1.67,
            -1.88,
            -2.0,
            -2.24,
            -2.32,
            -2.5,
            -2.7,
            -2.78,
            -3.0,
            -3.15,
            -3.32,
            -3.42,
            -3.68,
            -3.87,
            -3.88,
            -4.07,
            -4.31,
            -4.38,
            -4.68,
            -4.67,
            -4.9,
            -5.09,
            -5.23,
            -5.45,
            -5.52,
            -5.82,
            -6.26,
            -6.45,
            -6.57,
            -6.82,
            -6.97,
            -7.21,
            -7.46,
            -7.61,
            -7.84,
            -8.06,
            -8.35,
            -8.62,
            -8.92,
            -9.13,
            -9.41,
            -9.74,
            -10.03,
            -10.29,
            -10.68,
            -11.02,
            -11.28,
            -11.64,
            -12.26,
            -12.47,
            -13.06,
            -13.59,
            -14.14,
            -14.53,
            -15.11,
            -15.7,
            -16.5,
            -16.58,
            -16.88,
            -17.05,
            -17.21,
            -17.3,
            -17.08,
            -16.99,
            -16.84,
            -16.54,
            -16.42,
            -16.19,
            -15.99,
            -15.82,
            -15.57,
            -15.31,
            -15.16,
            -14.95,
            -14.7,
            -14.5,
            -14.3,
            -14.06,
            -13.78,
            -13.64,
            -13.32,
            -13.16,
            -12.88,
            -12.71,
            -12.38,
            -12.19,
            -12.0,
            -11.86,
            -11.54,
            -11.33,
            -11.12,
            -10.99,
            -10.7,
            -10.49,
            -10.29,
            -10.09,
            -9.99,
            -9.72,
            -9.4,
            -9.27,
            -8.97,
            -8.89,
            -8.66,
            -8.53,
            -8.26,
            -8.04,
            -7.79,
            -7.61,
            -7.24,
            -7.13,
            -6.88,
            -6.56,
            -6.25,
            -6.17,
            -5.93,
            -5.81,
            -5.46,
            -5.27,
            -5.15,
            -4.91,
            -4.68,
            -4.49,
            -4.38,
            -4.16,
            -3.92,
            -3.87,
            -3.75,
            -3.55,
            -3.46,
            -3.22,
            -3.07,
            -2.86,
            -2.77,
            -2.61,
            -2.46,
            -2.29,
            -2.09,
            -1.95,
            -1.85,
            -1.74,
            -1.54,
            -1.39,
            -1.31,
            -1.1,
            -0.89,
            -0.78,
            -0.66,
            -0.45,
            -0.32,
            -0.19,
            -0.2,
            0.12,
            0.2,
            0.3,
            0.58,
            0.68,
            0.74,
            0.94,
            1.0,
            1.22,
            1.34,
            1.52,
            1.69,
            1.81,
            2.04,
            2.18,
            2.36,
            2.49,
            2.7,
            2.82,
            3.03,
            3.13,
            3.35,
            3.51,
            3.76,
            3.91,
            4.07,
            4.23,
            4.49,
            4.51,
            4.83,
            5.0,
            5.23,
            5.35,
            5.5,
            5.76,
            5.91,
            6.27,
            6.38,
            6.58,
            6.86,
            6.96,
            7.2,
            7.46,
            7.77,
            8.06,
            8.29,
            8.67,
            8.82,
            9.1,
            9.47,
            9.93,
            10.26,
            10.79,
            11.24,
            11.75,
            12.26,
            12.74,
            13.24,
            13.77,
            14.24,
            14.82,
            15.45,
            16.02,
            16.63,
            17.31,
            17.97,
            18.61,
            19.25,
            19.68,
            20.25,
            20.76,
            21.34,
            21.93,
            22.59,
            22.98,
            23.5,
            23.89,
            24.51,
            25.07,
            25.43,
            25.93,
            26.47,
            26.92,
            27.43,
            27.88,
            28.44,
            28.97,
            29.49,
            30.05,
            30.57,
            31.18,
            31.84,
            32.36,
            32.88,
            33.45,
            33.97,
            34.57,
            35.07,
            35.61,
            36.12,
            36.4,
            36.09,
            35.86,
            35.59,
            35.45,
            35.2,
            34.92,
            34.64,
            34.38,
            34.09,
            33.9,
            33.62,
            33.42,
            33.12,
            32.95,
            32.58,
            32.54,
            32.27,
            31.97,
            31.69,
            31.42,
            31.2,
            30.92,
            30.65,
            30.44,
            30.15,
            29.9,
            29.63,
            29.3,
            28.97,
            28.7,
            28.41,
            28.16,
            27.92,
            27.63,
            27.26,
            26.92,
            26.61,
            26.25,
            25.93,
            25.62,
            25.23,
            25.08,
            24.8,
            24.4,
            23.94,
            23.59,
            23.35,
            22.89,
            22.4,
            21.97,
            21.45,
            20.89,
            20.42,
            19.88,
            19.37,
            18.85,
            18.3,
            17.73,
            17.24,
            16.6,
            16.15,
            15.65,
            15.2,
            14.62,
            14.11,
            13.58,
            13.1,
            12.55,
            12.01,
            11.5,
            10.82,
            10.31,
            9.79,
            9.18,
            8.63,
            8.02,
            7.47,
            7.07,
            6.48,
            5.95,
            5.62,
            5.13,
            4.59,
            4.05,
            3.46,
            3.08,
            2.68,
            2.34,
            1.93,
            1.47,
            1.07,
            0.75,
            0.32,
            -0.04,
            -0.41,
            -0.73,
            -1.1,
            -1.43,
            -1.8,
            -2.08,
            -2.34,
            -2.71,
            -3.07,
            -3.41,
            -3.78,
            -4.04,
            -4.39,
            -4.76,
            -5.11,
            -5.52,
            -5.85,
            -6.29,
            -6.77,
            -7.15,
            -7.56,
            -7.98,
            -8.47,
            -8.92,
            -9.43,
            -10.01,
            -10.54,
            -10.81,
            -11.31,
            -11.72,
            -12.25,
            -12.82,
            -13.41,
            -13.93,
            -14.44,
            -14.98,
            -15.5,
            -16.03,
            -16.58,
            -17.12,
            -17.49,
            -17.99,
            -18.56,
            -19.13,
            -19.67,
            -20.18,
            -20.8,
            -21.07,
            -21.62,
            -22.14,
            -22.67,
            -22.98,
            -23.5,
            -24.05,
            -24.6,
            -24.99,
            -25.52,
            -26.12,
            -26.61,
            -27.26,
            -27.8,
            -28.05,
            -28.59,
            -29.15,
            -29.67,
            -29.87,
            -30.38,
            -30.97,
            -31.43,
            -32.06,
            -32.65,
            -33.12,
            -33.77,
            -34.33,
            -34.7,
            -35.24,
            -35.83,
            -36.31,
            -36.52,
            -36.39,
            -36.18,
            -36.11,
            -35.8,
            -35.7,
            -35.28,
            -34.99,
            -34.67,
            -34.52,
            -34.33,
            -33.99,
            -33.6,
            -33.45,
            -33.18,
            -32.88,
            -32.58,
            -32.24,
            -31.94,
            -31.64,
            -31.31,
            -30.96,
            -30.7,
            -30.4,
            -30.1,
            -29.63,
            -29.34,
            -28.9,
            -28.7,
            -28.34,
            -27.69,
            -27.35,
            -27.1,
            -26.63,
            -26.33,
            -25.71,
            -25.51,
            -25.22,
            -24.95,
            -24.57,
            -24.13,
            -23.95,
            -23.37,
            -23.33,
            -22.75,
            -22.49,
            -21.86,
            -21.72,
            -21.17,
            -20.77,
            -20.3,
            -19.99,
            -19.71,
            -19.09,
            -18.94,
            -18.26,
            -17.73,
            -17.36,
            -17.13,
            -16.58,
            -16.19,
            -15.76,
            -15.22,
            -14.79,
            -14.28,
            -13.78,
            -13.19,
            -12.57,
            -12.06,
            -11.5,
            -10.87,
            -10.16,
            -9.93,
            -9.43,
            -8.92,
            -8.39,
            -7.92,
            -7.42,
            -6.63,
            -6.31,
            -5.76,
            -5.25,
            -4.86,
            -4.14,
            -3.64,
            -3.15,
            -2.65,
            -2.06,
            -1.84,
            -1.33,
            -0.69,
            -0.19,
            0.0,
            0.62,
            1.2,
            1.75,
            2.42,
            2.95,
            3.26,
            3.78,
            4.28,
            4.78,
            5.45,
            5.85,
            6.36,
            6.89,
            7.46,
            7.99,
            8.54,
            9.16,
            9.25,
            9.73,
            10.35,
            10.91,
            11.42,
            12.06,
            12.21,
            12.75,
            13.33,
            13.32,
            13.92,
            14.57,
            14.71,
            15.22,
            15.8,
            16.47,
            17.01,
            17.58,
            18.27,
            18.87,
            19.37,
            19.98,
            20.21,
            20.73,
            21.42,
            22.01,
            22.54,
            23.0,
            23.55,
            24.08,
            24.31,
            25.08,
            25.53,
            26.22,
            26.86,
            27.37,
            28.01,
            28.17,
            28.79,
            29.42,
            29.55,
            30.18,
            30.7,
            30.81,
            31.33,
            31.9,
            32.12,
            32.65,
            33.47,
            33.5,
            34.0,
            34.76,
            35.33,
            35.98,
            35.95,
            36.58,
            37.2,
            37.23,
            37.43,
            37.61,
            37.16,
            37.07,
            36.53,
            36.55,
            36.24,
            35.92,
            35.5,
            35.29,
            35.4,
            34.86,
            34.83,
            34.45,
            34.27,
            33.92,
            33.68,
            33.45,
            32.94,
            32.73,
            32.65,
            32.15,
            32.06,
            31.8,
            31.28,
            30.97,
            30.84,
            30.37,
            30.14,
            29.62,
            29.2,
            29.16,
            28.65,
            28.33,
            28.27,
            27.79,
            27.27,
            27.04,
            26.66,
            26.2,
            25.55,
            25.22,
            24.89,
            24.26,
            23.62,
            23.33,
            22.79,
            22.16,
            21.55,
            21.1,
            20.56,
            20.17,
            19.64,
            19.3,
            18.4,
            17.91,
            17.22,
            16.57,
            16.28,
            15.64,
            15.03,
            14.49,
            13.82,
            13.32,
            12.82,
            12.28,
            11.68,
            10.99,
            10.34,
            9.74,
            8.94,
            8.34,
            7.82,
            7.29,
            6.52,
            5.73,
            5.19,
            4.6,
            4.01,
            3.38,
            2.88,
            2.27,
            1.55,
            1.05,
            0.43,
            -0.1,
            -0.81,
            -1.51,
            -2.13,
            -2.63,
            -3.15,
            -3.66,
            -4.51,
            -5.13,
            -5.69,
            -6.21,
            -6.92,
            -7.43,
            -7.93,
            -8.59,
            -9.15,
            -9.68,
            -10.23,
            -10.74,
            -11.44,
            -12.06,
            -12.49,
            -13.22,
            -13.75,
            -14.58,
            -15.14,
            -15.91,
            -15.8,
            -16.38,
            -16.96,
            -17.34,
            -17.9,
            -18.46,
            -19.06,
            -19.85,
            -20.3,
            -20.93,
            -21.62,
            -22.14,
            -22.67,
            -23.14,
            -23.83,
            -24.42,
            -25.13,
            -25.3,
            -25.91,
            -26.48,
            -26.79,
            -27.37,
            -28.1,
            -28.83,
            -29.44,
            -30.08,
            -30.78,
            -30.98,
            -31.63,
            -32.06,
            -32.56,
            -33.09,
            -33.43,
            -34.04,
            -34.35,
            -34.89,
            -35.59,
            -36.15,
            -36.83,
            -37.35,
            -37.39,
            -37.41,
            -37.18,
            -37.09,
            -36.65,
            -36.38,
            -36.18,
            -35.99,
            -35.7,
            -35.36,
            -34.99,
            -34.88,
            -34.39,
            -34.17,
            -33.58,
            -33.33,
            -33.0,
            -32.59,
            -32.26,
            -31.6,
            -31.16,
            -30.95,
            -30.45,
            -30.11,
            -29.35,
            -29.08,
            -28.69,
            -28.2,
            -27.83,
            -27.35,
            -27.2,
            -26.69,
            -26.48,
            -25.84,
            -25.48,
            -25.09,
            -24.55,
            -24.01,
            -23.76,
            -23.22,
            -23.03,
            -22.55,
            -21.97,
            -21.46,
            -20.97,
            -20.53,
            -20.01,
            -19.38,
            -18.81,
            -18.26,
            -17.6,
            -16.98,
            -16.44,
            -15.82,
            -15.28,
            -14.73,
            -14.04,
            -13.36,
            -12.73,
            -12.16,
            -11.65,
            -11.19,
            -10.54,
            -10.0,
            -9.43,
            -9.33,
            -8.82,
            -8.32,
            -7.97,
            -7.31,
            -6.74,
            -6.19,
            -5.69,
            -5.48,
            -4.84,
            -4.21,
            -3.51,
            -2.87,
            -2.27,
            -1.55,
            -0.87,
            -0.73,
            -0.11,
            0.43,
            0.96,
            1.46,
            2.12,
            2.79,
            3.32,
            3.56,
            4.13,
            4.7,
            5.33,
            5.89,
            6.55,
            7.19,
            7.79,
            8.32,
            8.53,
            9.15,
            9.74,
            10.32,
            10.89,
            11.66,
            12.34,
            12.96,
            13.55,
            14.19,
            14.69,
            15.3,
            15.86,
            16.27,
            16.85,
            17.44,
            18.1,
            18.82,
            19.55,
            20.22,
            20.4,
            21.03,
            21.67,
            22.23,
            22.9,
            23.47,
            24.18,
            24.88,
            25.49,
            25.92,
            26.48,
            27.25,
            27.9,
            28.41,
            28.99,
            29.57,
            30.19,
            30.73,
            30.97,
            31.57,
            32.31,
            32.69,
            33.21,
            33.97,
            34.5,
            35.32,
            35.93,
            36.52,
            37.23,
            37.84,
            38.4,
            38.65,
            38.38,
            38.44,
            38.39,
            38.07,
            38.2,
            37.9,
            37.44,
            37.28,
            37.18,
            36.94,
            36.35,
            36.36,
            36.01,
            35.83,
            35.38,
            34.95,
            34.58,
            34.13,
            33.61,
            33.09,
            32.71,
            32.22,
            31.95,
            31.49,
            30.96,
            30.46,
            30.26,
            29.47,
            29.1,
            28.32,
            27.52,
            27.02,
            26.46,
            25.92,
            25.32,
            24.69,
            23.92,
            23.33,
            22.75,
            22.25,
            21.69,
            21.03,
            20.45,
            19.94,
            19.41,
            18.6,
            18.03,
            17.45,
            16.69,
            16.06,
            15.51,
            14.93,
            14.14,
            13.61,
            13.03,
            12.87,
            12.46,
            12.61,
            12.61
        ],
        "force": [
            1.444032,
            2.762496,
            4.206528,
            5.96448,
            7.345728,
            9.166464,
            10.54771,
            11.86618,
            13.24742,
            14.44032,
            16.00992,
            17.57952,
            19.14912,
            20.53037,
            21.78605,
            23.35565,
            25.1136,
            26.3065,
            27.75053,
            29.13178,
            30.32467,
            31.89427,
            33.65223,
            35.22182,
            36.66586,
            38.36102,
            40.05619,
            41.37466,
            43.19539,
            45.20448,
            47.15078,
            48.97152,
            50.28999,
            52.29907,
            54.11981,
            55.62663,
            57.44736,
            59.01696,
            60.8377,
            62.34451,
            63.97689,
            65.79763,
            67.68115,
            69.37632,
            71.13427,
            72.76665,
            74.65018,
            76.21977,
            77.66381,
            79.23341,
            80.86579,
            82.24704,
            84.19334,
            85.57459,
            87.01862,
            88.33709,
            90.09504,
            91.47629,
            93.17146,
            94.86662,
            96.31065,
            98.06861,
            99.70099,
            100.8311,
            102.4007,
            103.6564,
            105.226,
            106.6072,
            107.9257,
            109.5581,
            111.1277,
            112.5717,
            113.953,
            115.3342,
            116.9038,
            118.4106,
            119.6663,
            121.1731,
            122.4288,
            123.8728,
            125.568,
            122.8683,
            118.2851,
            117.0922,
            116.841,
            116.4643,
            115.7109,
            114.1413,
            112.7601,
            111.8811,
            110.3115,
            108.993,
            107.2979,
            105.6027,
            104.2214,
            103.1541,
            101.3962,
            99.63821,
            98.44531,
            96.68736,
            94.86662,
            93.10867,
            91.53907,
            89.71834,
            87.96038,
            86.76749,
            85.19789,
            83.81664,
            82.24704,
            80.99136,
            79.42176,
            78.29165,
            76.47091,
            74.90131,
            73.33171,
            71.57376,
            69.94138,
            68.30899,
            66.36269,
            64.54195,
            62.84678,
            61.33997,
            59.83315,
            58.26355,
            56.69395,
            55.06157,
            53.93146,
            52.48742,
            50.85504,
            49.28544,
            47.59027,
            45.76954,
            44.01159,
            42.81869,
            40.99795,
            39.17722,
            37.48205,
            36.1008,
            34.65677,
            33.3383,
            31.45478,
            29.75962,
            28.31558,
            27.12269,
            25.4903,
            23.98349,
            22.53946,
            21.03264,
            19.2119,
            18.01901,
            16.26106,
            15.19373,
            13.49856,
            11.67782,
            10.04544,
            8.726976,
            6.90624,
            5.524992,
            4.206528,
            2.950848,
            1.192896,
            -0.251136,
            -2.009088,
            -3.390336,
            -4.897152,
            -6.2784,
            -7.659648,
            -9.10368,
            -10.73606,
            -12.24288,
            -14.00083,
            -15.25651,
            -16.8889,
            -18.4585,
            -20.15366,
            -21.53491,
            -23.23008,
            -24.36019,
            -26.11814,
            -27.56218,
            -29.32013,
            -30.88973,
            -32.64768,
            -34.40563,
            -35.84966,
            -37.6704,
            -39.17722,
            -40.62125,
            -42.3792,
            -43.5721,
            -45.20448,
            -46.14624,
            -47.71584,
            -48.90874,
            -49.91328,
            -51.48288,
            -53.11526,
            -55.12435,
            -56.63117,
            -58.20077,
            -59.20531,
            -60.64935,
            -62.59565,
            -64.22803,
            -65.79763,
            -67.17888,
            -68.6857,
            -70.12973,
            -71.51098,
            -72.89223,
            -74.33626,
            -76.09421,
            -77.47546,
            -78.79392,
            -80.80301,
            -81.9959,
            -83.25159,
            -84.7584,
            -86.328,
            -87.58368,
            -89.52998,
            -90.6601,
            -92.29248,
            -93.92487,
            -95.68282,
            -96.87571,
            -98.57088,
            -99.63821,
            -101.0195,
            -102.1496,
            -103.782,
            -105.0376,
            -106.6072,
            -107.9257,
            -109.872,
            -111.2533,
            -112.2578,
            -113.8902,
            -115.5226,
            -116.6527,
            -118.2851,
            -119.2896,
            -120.9848,
            -121.801,
            -123.5589,
            -124.8146,
            -126.1331,
            -127.012,
            -128.1422,
            -128.3933,
            -125.6308,
            -118.2223,
            -116.4015,
            -114.8319,
            -113.074,
            -111.5672,
            -110.5626,
            -108.993,
            -107.7373,
            -106.1677,
            -104.4098,
            -103.0285,
            -101.3962,
            -100.0149,
            -98.57088,
            -97.06406,
            -95.43168,
            -93.92487,
            -92.54362,
            -90.91123,
            -89.4672,
            -87.77203,
            -86.328,
            -85.1351,
            -83.56551,
            -81.9959,
            -80.80301,
            -79.04506,
            -77.47546,
            -76.09421,
            -74.65018,
            -73.14336,
            -71.63654,
            -70.06694,
            -68.56013,
            -67.1161,
            -65.73485,
            -64.7303,
            -63.22349,
            -61.52832,
            -60.46099,
            -59.01696,
            -57.57293,
            -56.44282,
            -55.06157,
            -53.24083,
            -51.92237,
            -50.54112,
            -49.15987,
            -47.40192,
            -46.14624,
            -44.51385,
            -42.94426,
            -41.93971,
            -39.99341,
            -38.61216,
            -37.16813,
            -35.91245,
            -34.59398,
            -32.89882,
            -31.45478,
            -29.75962,
            -28.37837,
            -26.99712,
            -25.36474,
            -23.98349,
            -22.53946,
            -20.96986,
            -19.40026,
            -18.01901,
            -16.38662,
            -14.62867,
            -12.87072,
            -11.23834,
            -9.543168,
            -7.973568,
            -6.466752,
            -5.211072,
            -3.704256,
            -2.134656,
            -0.251136,
            0.94176,
            2.51136,
            3.704256,
            5.524992,
            6.90624,
            8.538624,
            10.10822,
            11.48947,
            13.24742,
            14.1264,
            15.63322,
            17.2656,
            18.96077,
            20.46758,
            21.78605,
            23.60678,
            24.79968,
            26.3065,
            27.75053,
            28.88064,
            30.13632,
            31.83149,
            33.02438,
            34.71955,
            36.28915,
            37.85875,
            39.55392,
            41.06074,
            42.56755,
            44.19994,
            45.58118,
            47.40192,
            49.09709,
            50.47834,
            51.85958,
            53.42918,
            55.06157,
            56.25446,
            58.26355,
            59.77037,
            61.15162,
            62.59565,
            64.03968,
            65.42093,
            66.99052,
            68.87405,
            69.87859,
            71.44819,
            72.70387,
            74.21069,
            75.84307,
            76.84762,
            78.29165,
            80.23795,
            81.17971,
            83.12601,
            84.31891,
            85.70016,
            87.39532,
            88.58823,
            90.34618,
            91.35072,
            93.23424,
            94.30157,
            96.24787,
            98.00582,
            99.76378,
            100.9567,
            102.4007,
            104.2214,
            105.9166,
            107.1723,
            108.8047,
            109.7464,
            111.2533,
            111.8811,
            113.1368,
            113.639,
            113.8902,
            114.6436,
            113.8902,
            113.7646,
            112.6973,
            111.3788,
            110.9393,
            109.7464,
            108.9302,
            107.4234,
            106.2305,
            104.9748,
            102.2123,
            101.0195,
            100.0149,
            98.82201,
            97.3152,
            96.87571,
            95.05498,
            93.67373,
            92.85754,
            91.72742,
            90.53453,
            89.52998,
            88.39987,
            87.33254,
            86.20243,
            85.1351,
            84.00499,
            83.00045,
            81.80755,
            80.80301,
            79.98682,
            79.04506,
            78.10329,
            77.09875,
            76.40813,
            75.52915,
            73.70842,
            71.76212,
            70.06694,
            68.49734,
            66.48826,
            64.7303,
            62.97235,
            61.2144,
            59.39367,
            57.82406,
            55.87776,
            54.43373,
            52.86413,
            51.16896,
            49.47379,
            47.96698,
            46.39738,
            44.76499,
            43.38374,
            41.81414,
            40.24454,
            38.8633,
            36.79142,
            35.28461,
            33.84058,
            31.95706,
            30.45024,
            29.06899,
            26.93434,
            25.30195,
            23.35565,
            21.9744,
            20.4048,
            18.58406,
            17.07725,
            15.19373,
            13.62413,
            12.11731,
            10.17101,
            8.664192,
            7.157376,
            5.399424,
            4.018176,
            2.636928,
            1.25568,
            -0.251136,
            -1.820736,
            -3.327552,
            -4.771584,
            -6.466752,
            -7.471296,
            -9.040896,
            -10.48493,
            -11.86618,
            -13.24742,
            -14.81702,
            -16.19827,
            -17.6423,
            -19.14912,
            -20.34202,
            -21.72326,
            -23.04173,
            -24.61133,
            -25.55309,
            -26.99712,
            -28.19002,
            -29.50848,
            -30.45024,
            -31.70592,
            -32.83603,
            -34.09171,
            -35.09626,
            -35.91245,
            -37.04256,
            -38.0471,
            -39.36557,
            -40.18176,
            -41.56301,
            -42.75591,
            -43.5721,
            -44.82778,
            -46.20902,
            -47.77863,
            -49.15987,
            -50.85504,
            -52.29907,
            -53.68032,
            -54.87321,
            -56.44282,
            -57.88685,
            -59.39367,
            -60.8377,
            -62.34451,
            -63.91411,
            -65.10701,
            -66.48826,
            -68.12064,
            -69.37632,
            -70.88313,
            -72.45274,
            -73.83398,
            -75.27802,
            -76.65926,
            -78.10329,
            -79.48454,
            -80.86579,
            -82.24704,
            -83.81664,
            -85.1351,
            -86.51635,
            -88.08595,
            -89.59277,
            -91.16237,
            -92.35526,
            -93.86208,
            -95.24332,
            -96.87571,
            -98.19418,
            -99.26151,
            -99.38707,
            -99.82656,
            -101.0195,
            -102.024,
            -103.4053,
            -104.2214,
            -104.0331,
            -105.0376,
            -105.9166,
            -106.5444,
            -106.5444,
            -105.7283,
            -106.4189,
            -106.1677,
            -105.9794,
            -104.7237,
            -104.5981,
            -104.1587,
            -102.4007,
            -101.3962,
            -100.266,
            -99.82656,
            -98.44531,
            -97.6919,
            -96.43623,
            -95.24332,
            -93.23424,
            -92.29248,
            -90.97401,
            -89.71834,
            -88.08595,
            -86.95584,
            -85.95129,
            -84.19334,
            -83.25159,
            -82.3726,
            -80.99136,
            -80.0496,
            -79.35898,
            -78.29165,
            -76.9104,
            -76.09421,
            -75.27802,
            -73.70842,
            -72.82944,
            -71.95046,
            -70.25529,
            -69.31354,
            -68.74848,
            -67.1161,
            -66.55104,
            -65.79763,
            -63.97689,
            -62.59565,
            -61.2144,
            -60.0215,
            -58.4519,
            -57.07066,
            -55.81498,
            -54.49651,
            -52.92691,
            -51.54567,
            -50.10163,
            -48.6576,
            -46.52295,
            -45.5184,
            -44.19994,
            -42.63034,
            -41.24909,
            -40.05619,
            -38.80051,
            -37.48205,
            -36.03802,
            -34.59398,
            -33.40109,
            -32.20819,
            -30.70138,
            -29.25734,
            -28.06445,
            -26.93434,
            -25.74144,
            -24.48576,
            -23.10451,
            -21.40934,
            -20.21645,
            -19.02355,
            -17.57952,
            -16.19827,
            -15.06816,
            -13.43578,
            -12.05453,
            -10.48493,
            -9.10368,
            -7.785216,
            -6.466752,
            -5.148288,
            -3.892608,
            -2.009088,
            -0.62784,
            0.439488,
            1.820736,
            2.82528,
            4.206528,
            5.776128,
            7.157376,
            8.664192,
            10.04544,
            11.42669,
            12.68237,
            13.68691,
            15.06816,
            16.82611,
            18.08179,
            19.58861,
            21.22099,
            21.84883,
            23.35565,
            23.98349,
            25.36474,
            26.36928,
            27.49939,
            28.37837,
            29.50848,
            30.88973,
            32.27098,
            30.76416,
            31.83149,
            33.27552,
            32.89882,
            34.28006,
            35.59853,
            36.03802,
            37.41927,
            38.61216,
            38.61216,
            40.05619,
            40.37011,
            41.93971,
            43.32096,
            43.19539,
            44.51385,
            46.14624,
            45.8951,
            47.40192,
            47.59027,
            49.09709,
            50.28999,
            50.47834,
            52.23629,
            52.48742,
            53.86867,
            55.43827,
            55.81498,
            56.19168,
            57.57293,
            57.44736,
            59.07974,
            59.77037,
            59.95872,
            61.40275,
            61.02605,
            62.53286,
            63.41184,
            62.21894,
            63.72576,
            64.41638,
            63.97689,
            65.35815,
            66.36269,
            64.98144,
            66.17434,
            67.1161,
            65.79763,
            67.1161,
            67.99507,
            66.7394,
            67.74393,
            68.49734,
            68.12064,
            69.12518,
            68.37177,
            69.37632,
            68.56013,
            69.37632,
            70.12973,
            68.74848,
            69.31354,
            69.94138,
            69.18797,
            69.69024,
            68.12064,
            68.74848,
            68.93683,
            67.4928,
            67.93229,
            66.61382,
            67.17888,
            65.60928,
            65.79763,
            66.11155,
            64.60474,
            64.60474,
            64.60474,
            63.03514,
            63.22349,
            62.97235,
            61.40275,
            61.33997,
            61.2144,
            59.6448,
            59.45645,
            59.39367,
            57.57293,
            57.38457,
            55.43827,
            55.3127,
            55.06157,
            53.49197,
            53.30362,
            53.05248,
            51.48288,
            50.16442,
            48.6576,
            47.27635,
            45.5184,
            43.50931,
            41.75136,
            39.99341,
            38.23545,
            36.79142,
            35.03347,
            33.3383,
            32.89882,
            31.32922,
            29.69683,
            28.12723,
            26.49485,
            24.61133,
            23.04173,
            21.5977,
            19.65139,
            17.83066,
            16.57498,
            14.87981,
            13.24742,
            11.74061,
            10.04544,
            8.16192,
            6.529536,
            4.771584,
            3.327552,
            1.946304,
            0.439488,
            -1.004544,
            -2.574144,
            -3.892608,
            -5.524992,
            -6.2784,
            -7.910784,
            -9.354816,
            -10.86163,
            -12.11731,
            -13.49856,
            -15.00538,
            -16.44941,
            -17.83066,
            -19.2119,
            -20.4048,
            -21.53491,
            -23.29286,
            -24.79968,
            -26.3065,
            -27.68774,
            -28.69229,
            -30.26189,
            -31.64314,
            -33.02438,
            -34.40563,
            -35.22182,
            -36.85421,
            -37.35648,
            -38.61216,
            -39.6167,
            -40.24454,
            -40.99795,
            -41.75136,
            -42.12806,
            -42.75591,
            -43.19539,
            -43.5721,
            -44.13715,
            -44.3255,
            -44.76499,
            -45.20448,
            -45.58118,
            -46.08345,
            -46.58573,
            -47.33913,
            -47.71584,
            -48.46925,
            -48.84595,
            -49.34822,
            -50.03885,
            -50.47834,
            -51.23174,
            -52.04794,
            -52.23629,
            -52.86413,
            -53.80589,
            -54.49651,
            -55.06157,
            -55.50106,
            -56.06611,
            -57.07066,
            -57.63571,
            -58.20077,
            -58.76582,
            -59.20531,
            -60.0215,
            -60.33542,
            -58.64025,
            -59.77037,
            -60.64935,
            -59.77037,
            -60.8377,
            -60.58656,
            -61.2144,
            -62.34451,
            -63.03514,
            -62.34451,
            -63.34906,
            -62.90957,
            -63.97689,
            -62.53286,
            -62.90957,
            -63.91411,
            -62.59565,
            -62.784,
            -63.78854,
            -62.59565,
            -63.41184,
            -61.77946,
            -62.53286,
            -61.02605,
            -61.40275,
            -61.40275,
            -60.0215,
            -60.14707,
            -58.82861,
            -58.57747,
            -57.25901,
            -57.00787,
            -56.88231,
            -55.18714,
            -54.87321,
            -53.42918,
            -53.24083,
            -51.67123,
            -51.10617,
            -50.85504,
            -49.34822,
            -49.28544,
            -47.90419,
            -47.52749,
            -47.33913,
            -45.8951,
            -45.58118,
            -44.19994,
            -43.82323,
            -42.50477,
            -42.00249,
            -40.55846,
            -39.93062,
            -38.61216,
            -37.41927,
            -36.03802,
            -35.09626,
            -33.08717,
            -31.45478,
            -30.32467,
            -28.31558,
            -26.87155,
            -25.67866,
            -24.29741,
            -22.91616,
            -21.72326,
            -19.83974,
            -18.01901,
            -16.8889,
            -15.38208,
            -14.18918,
            -12.68237,
            -11.30112,
            -9.919872,
            -8.287488,
            -7.471296,
            -5.524992,
            -4.332096,
            -2.762496,
            -0.94176,
            0.439488,
            1.820736,
            3.1392,
            4.39488,
            5.524992,
            6.969024,
            8.47584,
            10.17101,
            11.42669,
            12.74515,
            14.1264,
            15.63322,
            16.63776,
            18.01901,
            19.96531,
            21.22099,
            22.3511,
            23.73235,
            24.79968,
            26.11814,
            27.49939,
            29.13178,
            30.26189,
            31.83149,
            33.02438,
            34.65677,
            35.41018,
            36.66586,
            37.85875,
            39.24,
            39.80506,
            39.55392,
            40.8096,
            39.6167,
            40.99795,
            40.37011,
            41.1863,
            42.12806,
            40.74681,
            41.62579,
            42.63034,
            41.24909,
            42.63034,
            41.81414,
            42.81869,
            43.82323,
            42.56755,
            43.82323,
            43.00704,
            44.3255,
            43.82323,
            44.76499,
            44.38829,
            45.5184,
            44.13715,
            45.01613,
            45.95789,
            45.1417,
            45.8951,
            45.01613,
            46.14624,
            46.77408,
            45.33005,
            46.20902,
            45.33005,
            46.33459,
            45.5184,
            46.20902,
            47.088,
            46.33459,
            46.89965,
            45.5184,
            46.20902,
            46.77408,
            45.70675,
            45.20448,
            45.76954,
            44.70221,
            45.39283,
            44.01159,
            44.70221,
            43.76045,
            43.82323,
            44.38829,
            42.81869,
            43.32096,
            42.12806,
            42.44198,
            41.1863,
            41.62579,
            41.24909,
            39.67949,
            39.80506,
            38.42381,
            38.42381,
            37.23091,
            37.48205,
            36.03802,
            35.78688,
            35.66131,
            33.84058,
            33.90336,
            32.45933,
            32.64768,
            31.14086,
            31.14086,
            29.57126,
            28.94342,
            28.69229,
            27.18547,
            27.31104,
            27.31104,
            25.92979,
            25.99258,
            25.17638,
            22.91616,
            22.03718,
            20.15366,
            18.8352,
            18.20736,
            18.27014,
            17.83066,
            16.38662,
            14.87981,
            13.24742,
            11.74061,
            9.857088,
            8.350272,
            6.59232,
            4.897152,
            3.327552,
            1.820736,
            0.439488,
            -1.130112,
            -3.013632,
            -4.959936,
            -6.341184,
            -8.099136,
            -10.04544,
            -11.92896,
            -13.81248,
            -15.44486,
            -17.2656,
            -18.96077,
            -20.59315,
            -22.3511,
            -23.98349,
            -24.92525,
            -26.49485,
            -27.75053,
            -29.25734,
            -30.63859,
            -32.20819,
            -33.84058,
            -34.84512,
            -36.28915,
            -37.23091,
            -38.36102,
            -39.99341,
            -41.56301,
            -42.63034,
            -43.88602,
            -44.38829,
            -45.20448,
            -46.08345,
            -47.27635,
            -47.33913,
            -47.90419,
            -48.90874,
            -49.47379,
            -50.03885,
            -50.47834,
            -50.66669,
            -50.72947,
            -50.72947,
            -50.66669,
            -50.54112,
            -49.09709,
            -47.52749,
            -45.33005,
            -43.9488,
            -0.753408
        ]
    }
}