{
    "Name": "Galeota et al. 1996, AB4",
    "Type": "Rectangular",
    "fpc": 80.0,
    "fyt": 430.0,
    "fsut": 0.0,
    "fyl": 430.0,
    "fsul": 0.0,
    "Width": 250.0,
    "Depth": 250.0,
    "L_Inflection": 1140.0,
    "L_Measured": 1140.0,
    "TestConfiguration": "Double Ended",
    "AxLoad": 1000.0,
    "P_Delta": "Shear provided",
    "dlb": 20.0,
    "dlb_c": 20.0,
    "nlb": 12.0,
    "cc_per": 30.0,
    "nib_per": 2.0,
    "cc_par": 30.0,
    "nib_par": 2.0,
    "SubType": "RI: Rectangular and interlocking ties",
    "nsl": 4.0,
    "dtb_rcs": 8.0,
    "s_rcs": 150.0,
    "FailureType": "Flexure",
    "data": {
        "disp": [
            0.03,
            0.08,
            0.12,
            0.18,
            0.23,
            0.28,
            0.33,
            0.38,
            0.44,
            0.48,
            0.53,
            0.57,
            0.63,
            0.68,
            0.73,
            0.78,
            0.82,
            0.88,
            0.93,
            0.99,
            1.05,
            1.1,
            1.15,
            1.2,
            1.26,
            1.31,
            1.38,
            1.42,
            1.48,
            1.54,
            1.59,
            1.66,
            1.71,
            1.77,
            1.82,
            1.87,
            1.93,
            2.0,
            2.06,
            2.12,
            2.18,
            2.25,
            2.32,
            2.38,
            2.45,
            2.52,
            2.58,
            2.64,
            2.71,
            2.79,
            2.85,
            2.92,
            2.98,
            3.05,
            3.11,
            3.19,
            3.26,
            3.33,
            3.4,
            3.53,
            3.59,
            3.65,
            3.75,
            3.83,
            3.92,
            4.01,
            4.1,
            4.19,
            4.25,
            4.34,
            4.43,
            4.52,
            4.6,
            4.69,
            4.78,
            4.89,
            5.0,
            5.11,
            5.22,
            5.33,
            5.44,
            5.55,
            5.64,
            5.74,
            5.87,
            5.98,
            6.19,
            6.27,
            6.38,
            6.49,
            6.63,
            6.76,
            6.9,
            7.03,
            7.17,
            7.3,
            7.44,
            7.58,
            7.74,
            7.89,
            8.02,
            8.23,
            8.33,
            8.47,
            8.61,
            8.78,
            8.93,
            9.1,
            9.27,
            9.45,
            9.63,
            9.84,
            10.05,
            10.23,
            10.4,
            10.57,
            10.74,
            10.91,
            11.08,
            11.25,
            11.42,
            11.58,
            11.78,
            12.02,
            12.22,
            12.42,
            12.62,
            12.8,
            12.96,
            13.05,
            13.08,
            13.25,
            13.46,
            13.63,
            13.85,
            14.0,
            14.19,
            14.37,
            14.57,
            14.72,
            14.91,
            15.1,
            15.28,
            15.52,
            15.65,
            15.81,
            15.98,
            16.19,
            16.36,
            16.58,
            16.8,
            17.03,
            17.25,
            17.43,
            17.65,
            17.87,
            18.08,
            18.26,
            18.49,
            18.72,
            18.9,
            19.22,
            19.74,
            20.07,
            20.37,
            20.93,
            21.33,
            21.73,
            21.86,
            21.91,
            21.95,
            21.99,
            21.95,
            21.83,
            21.71,
            21.59,
            21.46,
            21.34,
            21.21,
            21.09,
            20.97,
            20.84,
            20.72,
            20.59,
            20.47,
            20.34,
            20.22,
            20.09,
            19.96,
            19.83,
            19.71,
            19.58,
            19.45,
            19.32,
            19.2,
            19.07,
            18.94,
            18.81,
            18.68,
            18.56,
            18.43,
            18.3,
            18.17,
            18.05,
            17.92,
            17.79,
            17.65,
            17.49,
            17.36,
            17.23,
            17.1,
            16.97,
            16.84,
            16.71,
            16.58,
            16.45,
            16.32,
            16.2,
            16.06,
            15.93,
            15.81,
            15.67,
            15.55,
            15.42,
            15.28,
            15.16,
            15.03,
            14.9,
            14.76,
            14.64,
            14.51,
            14.38,
            14.25,
            14.12,
            13.99,
            13.86,
            13.73,
            13.6,
            13.47,
            13.33,
            13.21,
            13.07,
            12.92,
            12.78,
            12.64,
            12.51,
            12.37,
            12.23,
            12.09,
            11.95,
            11.81,
            11.67,
            11.53,
            11.38,
            11.25,
            11.11,
            10.97,
            10.84,
            10.7,
            10.55,
            10.42,
            10.28,
            10.14,
            10.0,
            9.87,
            9.73,
            9.6,
            9.45,
            9.32,
            9.18,
            9.05,
            8.87,
            8.73,
            8.6,
            8.47,
            8.34,
            8.2,
            8.08,
            7.95,
            7.82,
            7.69,
            7.51,
            7.27,
            7.14,
            7.01,
            6.9,
            6.78,
            6.65,
            6.54,
            6.41,
            6.29,
            6.18,
            6.05,
            5.93,
            5.8,
            5.71,
            5.59,
            5.45,
            5.34,
            5.25,
            5.14,
            5.04,
            4.92,
            4.82,
            4.73,
            4.63,
            4.51,
            4.44,
            4.43,
            4.34,
            4.23,
            4.14,
            4.06,
            3.97,
            3.74,
            3.66,
            3.55,
            3.44,
            3.36,
            3.28,
            3.15,
            3.0,
            2.86,
            2.76,
            2.67,
            2.58,
            2.49,
            2.36,
            2.24,
            2.13,
            2.03,
            1.92,
            1.82,
            1.72,
            1.62,
            1.51,
            1.41,
            1.31,
            1.21,
            1.1,
            1.0,
            0.9,
            0.8,
            0.7,
            0.6,
            0.5,
            0.4,
            0.31,
            0.21,
            0.12,
            0.01,
            -0.08,
            -0.18,
            -0.28,
            -0.38,
            -0.47,
            -0.56,
            -0.66,
            -0.75,
            -0.85,
            -0.94,
            -1.03,
            -1.13,
            -1.25,
            -1.35,
            -1.44,
            -1.53,
            -1.63,
            -1.73,
            -1.82,
            -1.92,
            -2.01,
            -2.08,
            -2.2,
            -2.31,
            -2.39,
            -2.52,
            -2.65,
            -2.78,
            -2.88,
            -3.0,
            -3.12,
            -3.25,
            -3.38,
            -3.49,
            -3.61,
            -3.74,
            -3.86,
            -3.98,
            -4.11,
            -4.24,
            -4.35,
            -4.5,
            -4.63,
            -4.75,
            -4.87,
            -5.02,
            -5.16,
            -5.31,
            -5.45,
            -5.59,
            -5.72,
            -5.86,
            -6.0,
            -6.14,
            -6.3,
            -6.43,
            -6.57,
            -6.71,
            -7.03,
            -7.14,
            -7.24,
            -7.54,
            -7.68,
            -7.82,
            -7.97,
            -8.11,
            -8.25,
            -8.39,
            -8.56,
            -8.72,
            -8.88,
            -9.06,
            -9.21,
            -9.39,
            -9.56,
            -9.75,
            -9.93,
            -10.11,
            -10.3,
            -10.5,
            -10.72,
            -10.94,
            -11.15,
            -11.34,
            -11.53,
            -11.71,
            -11.89,
            -12.08,
            -12.33,
            -12.71,
            -12.88,
            -13.05,
            -13.22,
            -13.44,
            -13.6,
            -13.83,
            -14.05,
            -14.3,
            -14.5,
            -14.72,
            -14.91,
            -15.12,
            -15.33,
            -15.53,
            -15.74,
            -15.94,
            -16.18,
            -16.39,
            -16.59,
            -16.83,
            -17.04,
            -17.26,
            -17.51,
            -17.74,
            -17.98,
            -18.18,
            -18.4,
            -18.63,
            -18.84,
            -19.06,
            -19.29,
            -19.69,
            -19.97,
            -20.49,
            -20.73,
            -21.06,
            -21.39,
            -21.89,
            -22.62,
            -22.69,
            -22.62,
            -22.5,
            -22.38,
            -22.25,
            -22.15,
            -22.03,
            -21.92,
            -21.8,
            -21.68,
            -21.56,
            -21.43,
            -21.31,
            -21.2,
            -21.07,
            -20.94,
            -20.8,
            -20.67,
            -20.54,
            -20.38,
            -20.27,
            -20.12,
            -19.99,
            -19.86,
            -19.72,
            -19.58,
            -19.44,
            -19.31,
            -19.14,
            -18.97,
            -18.8,
            -18.69,
            -18.51,
            -18.4,
            -18.29,
            -18.17,
            -18.0,
            -17.83,
            -17.72,
            -17.54,
            -17.43,
            -17.26,
            -17.07,
            -16.9,
            -16.74,
            -16.62,
            -16.45,
            -16.28,
            -16.17,
            -15.99,
            -15.81,
            -15.64,
            -15.47,
            -15.35,
            -15.22,
            -15.1,
            -14.97,
            -14.84,
            -14.72,
            -14.6,
            -14.46,
            -14.28,
            -14.16,
            -13.97,
            -13.77,
            -13.64,
            -13.52,
            -13.33,
            -13.2,
            -13.07,
            -12.95,
            -12.76,
            -12.63,
            -12.49,
            -12.34,
            -12.2,
            -12.05,
            -11.9,
            -11.74,
            -11.58,
            -11.42,
            -11.26,
            -11.11,
            -10.94,
            -10.79,
            -10.64,
            -10.48,
            -10.32,
            -10.16,
            -9.99,
            -9.83,
            -9.68,
            -9.52,
            -9.37,
            -9.2,
            -9.04,
            -8.85,
            -8.67,
            -8.48,
            -8.28,
            -8.09,
            -7.9,
            -7.71,
            -7.51,
            -7.33,
            -7.14,
            -6.95,
            -6.75,
            -6.56,
            -6.37,
            -6.17,
            -5.98,
            -5.79,
            -5.61,
            -5.42,
            -5.23,
            -5.05,
            -4.86,
            -4.67,
            -4.48,
            -4.3,
            -4.11,
            -3.93,
            -3.74,
            -3.56,
            -3.37,
            -3.19,
            -2.99,
            -2.89,
            -2.69,
            -2.54,
            -2.34,
            -2.16,
            -2.07,
            -1.97,
            -1.87,
            -1.78,
            -1.6,
            -1.43,
            -1.29,
            -1.15,
            -1.05,
            -0.92,
            -0.84,
            -0.68,
            -0.53,
            -0.37,
            -0.2,
            0.0,
            0.11,
            0.22,
            0.32,
            0.52,
            0.71,
            0.81,
            1.02,
            1.13,
            1.25,
            1.37,
            1.49,
            1.62,
            1.75,
            1.89,
            2.02,
            2.16,
            2.3,
            2.44,
            2.58,
            2.73,
            2.87,
            3.04,
            3.19,
            3.33,
            3.49,
            3.64,
            3.78,
            3.91,
            4.06,
            4.21,
            4.36,
            4.51,
            4.66,
            4.82,
            4.97,
            5.12,
            5.28,
            5.44,
            5.6,
            5.75,
            5.91,
            6.07,
            6.23,
            6.39,
            6.54,
            6.7,
            6.87,
            7.02,
            7.19,
            7.35,
            7.51,
            7.67,
            7.83,
            7.99,
            8.16,
            8.32,
            8.48,
            8.64,
            8.96,
            9.12,
            9.29,
            9.45,
            9.78,
            9.94,
            10.1,
            10.26,
            10.44,
            10.6,
            10.76,
            10.93,
            11.09,
            11.26,
            11.42,
            11.59,
            11.75,
            11.91,
            12.08,
            12.25,
            12.41,
            12.58,
            12.74,
            12.91,
            13.07,
            13.24,
            13.57,
            13.9,
            14.07,
            14.23,
            14.4,
            14.57,
            14.9,
            15.23,
            15.4,
            15.73,
            16.07,
            16.23,
            16.56,
            16.73,
            17.07,
            17.23,
            17.57,
            17.91,
            18.08,
            18.41,
            18.58,
            18.92,
            19.26,
            19.43,
            19.78,
            20.12,
            20.47,
            20.81,
            21.17,
            21.52,
            21.85,
            22.17,
            22.75,
            23.14,
            23.66,
            24.1,
            24.67,
            25.27,
            25.9,
            26.57,
            27.18,
            27.79,
            28.42,
            29.06,
            29.55,
            30.03,
            30.53,
            31.16,
            31.65,
            32.15,
            32.5,
            32.85,
            33.2,
            33.69,
            34.18,
            34.81,
            35.59,
            36.37,
            37.01,
            37.81,
            38.44,
            39.08,
            39.7,
            40.5,
            41.28,
            42.05,
            42.85,
            43.62,
            44.39,
            45.17,
            45.38,
            45.66,
            46.17,
            46.21,
            46.26,
            46.3,
            46.29,
            46.21,
            46.07,
            45.95,
            45.83,
            45.69,
            45.56,
            45.43,
            45.28,
            45.12,
            44.96,
            44.81,
            44.65,
            44.5,
            44.34,
            44.18,
            44.03,
            43.87,
            43.73,
            43.57,
            43.42,
            43.26,
            43.11,
            42.95,
            42.8,
            42.64,
            42.49,
            42.32,
            42.17,
            42.03,
            41.86,
            41.71,
            41.55,
            41.4,
            41.25,
            41.1,
            40.94,
            40.78,
            40.62,
            40.47,
            40.32,
            40.16,
            40.01,
            39.85,
            39.68,
            39.53,
            39.37,
            39.21,
            39.05,
            38.87,
            38.71,
            38.56,
            38.39,
            38.22,
            38.08,
            37.91,
            37.76,
            37.59,
            37.43,
            37.27,
            37.1,
            36.95,
            36.79,
            36.63,
            36.48,
            36.31,
            36.16,
            36.0,
            35.84,
            35.69,
            35.53,
            35.37,
            35.22,
            35.05,
            34.9,
            34.74,
            34.59,
            34.43,
            34.14,
            33.84,
            33.55,
            33.26,
            32.98,
            32.69,
            32.42,
            32.15,
            31.93,
            31.75,
            31.54,
            31.29,
            31.04,
            30.79,
            30.58,
            30.42,
            30.03,
            29.84,
            29.67,
            29.49,
            29.26,
            29.08,
            28.86,
            28.71,
            28.43,
            28.25,
            28.08,
            27.85,
            27.66,
            27.45,
            27.23,
            27.0,
            26.76,
            26.51,
            26.27,
            26.01,
            25.75,
            25.49,
            25.21,
            24.93,
            24.66,
            24.39,
            24.11,
            23.84,
            23.55,
            23.27,
            22.99,
            22.7,
            22.42,
            22.14,
            21.65,
            21.37,
            21.09,
            20.81,
            20.53,
            20.25,
            19.97,
            19.68,
            19.38,
            19.08,
            18.79,
            18.49,
            18.18,
            17.88,
            17.57,
            17.25,
            16.94,
            16.62,
            16.3,
            15.98,
            15.66,
            15.34,
            15.0,
            14.67,
            14.33,
            14.0,
            13.66,
            13.32,
            12.98,
            12.63,
            12.29,
            11.77,
            11.24,
            10.89,
            10.37,
            9.85,
            9.49,
            8.95,
            8.41,
            8.02,
            7.47,
            6.98,
            6.46,
            5.94,
            5.6,
            5.08,
            4.57,
            4.22,
            3.88,
            3.52,
            3.18,
            2.67,
            2.33,
            1.98,
            1.65,
            1.31,
            0.99,
            0.64,
            0.31,
            -0.02,
            -0.35,
            -0.68,
            -1.01,
            -1.34,
            -1.67,
            -1.99,
            -2.32,
            -2.65,
            -2.96,
            -3.29,
            -3.61,
            -3.93,
            -4.24,
            -4.55,
            -4.86,
            -5.18,
            -5.49,
            -5.81,
            -6.12,
            -6.43,
            -6.75,
            -7.06,
            -7.38,
            -7.69,
            -8.01,
            -8.32,
            -8.63,
            -8.94,
            -9.28,
            -9.6,
            -9.91,
            -10.24,
            -10.56,
            -10.88,
            -11.37,
            -11.86,
            -12.2,
            -12.71,
            -13.05,
            -13.58,
            -14.12,
            -14.47,
            -14.99,
            -15.53,
            -16.05,
            -16.77,
            -17.49,
            -18.24,
            -19.0,
            -19.78,
            -20.61,
            -21.46,
            -22.31,
            -23.21,
            -23.87,
            -24.77,
            -25.67,
            -26.4,
            -27.11,
            -27.59,
            -28.08,
            -28.82,
            -29.52,
            -30.24,
            -30.72,
            -31.47,
            -31.97,
            -32.47,
            -32.99,
            -33.66,
            -34.21,
            -34.67,
            -35.04,
            -35.34,
            -35.63,
            -36.1,
            -36.49,
            -36.86,
            -37.5,
            -38.08,
            -39.09,
            -39.67,
            -40.25,
            -40.74,
            -40.98,
            -41.42,
            -41.95,
            -42.21,
            -42.53,
            -42.93,
            -43.04,
            -43.35,
            -43.8,
            -44.06,
            -44.16,
            -44.28,
            -44.38,
            -44.47
        ],
        "force": [
            1.191915,
            2.38383,
            3.641963,
            4.94424,
            6.158225,
            7.372215,
            8.696565,
            10.02092,
            11.12454,
            12.25023,
            13.37593,
            14.50163,
            15.6494,
            16.75303,
            17.96701,
            19.13686,
            20.26255,
            21.47655,
            22.86711,
            24.08109,
            25.27301,
            26.59736,
            27.7672,
            28.93705,
            30.21725,
            31.56367,
            32.84388,
            34.01372,
            35.18356,
            36.50792,
            37.78812,
            39.02418,
            40.19402,
            41.29765,
            42.46749,
            43.6594,
            44.98375,
            46.26396,
            47.63245,
            48.97888,
            50.34735,
            51.71585,
            53.08435,
            54.45285,
            55.711,
            57.0574,
            58.3376,
            59.6178,
            60.8539,
            62.1341,
            63.30395,
            64.5179,
            65.6657,
            66.7914,
            67.9171,
            69.2635,
            70.5658,
            71.77975,
            72.99375,
            74.42845,
            75.6866,
            76.9006,
            78.31325,
            79.74795,
            81.11645,
            82.46285,
            83.8093,
            84.97915,
            86.08275,
            87.27465,
            88.5328,
            89.70265,
            90.91665,
            92.0644,
            93.1901,
            94.5365,
            95.79465,
            97.119,
            98.3992,
            99.5911,
            100.8493,
            102.0191,
            103.1448,
            104.3147,
            105.5286,
            106.8309,
            108.3539,
            109.4796,
            110.826,
            111.9738,
            113.3865,
            114.6666,
            115.991,
            117.2049,
            118.4631,
            119.5888,
            120.8028,
            121.9947,
            123.2749,
            124.5551,
            125.6808,
            126.9831,
            128.1971,
            129.5214,
            130.6692,
            131.9052,
            133.0751,
            134.4215,
            135.7459,
            137.004,
            138.1959,
            139.4099,
            140.6901,
            141.8379,
            143.0298,
            144.31,
            145.4798,
            146.6718,
            147.8416,
            148.9453,
            150.0709,
            151.2408,
            152.521,
            153.735,
            154.8607,
            156.0305,
            157.3107,
            158.5909,
            159.7166,
            157.6859,
            160.5112,
            161.6149,
            162.7847,
            163.9987,
            165.4113,
            166.5591,
            167.7952,
            169.0753,
            170.3776,
            171.4812,
            172.7835,
            173.9975,
            175.1453,
            176.4697,
            177.6174,
            178.8314,
            179.935,
            181.2594,
            182.363,
            183.7315,
            185.2103,
            186.5126,
            187.7708,
            188.9848,
            190.287,
            191.5672,
            192.7812,
            193.9952,
            195.1651,
            196.3349,
            197.593,
            198.8732,
            199.8002,
            200.9922,
            202.1841,
            203.5305,
            204.7666,
            199.7782,
            196.4453,
            195.2092,
            194.0394,
            192.9357,
            191.6555,
            190.1104,
            188.5654,
            187.0423,
            185.5856,
            184.1508,
            182.6058,
            181.1711,
            179.7805,
            178.2354,
            176.8007,
            175.366,
            173.8651,
            172.4303,
            170.9957,
            169.6051,
            168.1263,
            166.6915,
            165.2568,
            163.8663,
            162.3873,
            161.041,
            159.54,
            158.1494,
            156.7368,
            155.28,
            153.9336,
            152.521,
            151.0862,
            149.7399,
            148.3492,
            146.9146,
            145.5681,
            144.1334,
            142.6546,
            140.8887,
            139.4761,
            138.1077,
            136.7612,
            135.3707,
            134.0242,
            132.6557,
            131.2652,
            129.9408,
            128.5502,
            127.1597,
            125.8132,
            124.5331,
            123.0542,
            121.7519,
            120.4055,
            119.1032,
            117.7568,
            116.4103,
            115.1081,
            113.7396,
            112.4594,
            111.0468,
            109.8107,
            108.4864,
            107.1399,
            105.8376,
            104.4691,
            103.211,
            101.9308,
            100.6285,
            99.3483,
            98.0019,
            96.6555,
            95.33115,
            93.9185,
            92.55,
            91.20355,
            89.68055,
            88.4666,
            86.96565,
            85.5751,
            84.2728,
            82.86015,
            81.49165,
            80.21145,
            78.77675,
            77.3862,
            76.106,
            74.69335,
            73.3469,
            72.0005,
            70.5658,
            69.2635,
            67.895,
            66.5486,
            65.3346,
            63.92195,
            62.57555,
            61.27325,
            60.05925,
            58.71285,
            57.4768,
            56.24075,
            54.69565,
            53.50375,
            52.20145,
            51.00955,
            49.86178,
            48.47121,
            47.32344,
            46.13152,
            44.85132,
            43.54904,
            42.1364,
            40.96656,
            39.53185,
            38.25164,
            36.92729,
            35.5588,
            34.27859,
            33.08668,
            31.85062,
            30.57041,
            29.44472,
            28.0983,
            26.75187,
            25.58203,
            24.45633,
            23.04369,
            21.65312,
            20.41706,
            19.31344,
            17.96701,
            16.7751,
            15.45075,
            14.17054,
            13.06692,
            11.875,
            10.50651,
            7.747445,
            9.68983,
            8.49791,
            7.305995,
            6.158225,
            5.01046,
            3.730253,
            2.317612,
            1.191915,
            -0.2427975,
            -1.832018,
            -2.957715,
            -4.083413,
            -5.82714,
            -7.35014,
            -9.027655,
            -10.352,
            -11.52184,
            -12.80205,
            -13.97189,
            -15.58319,
            -17.01789,
            -18.36432,
            -19.73281,
            -20.99095,
            -22.33737,
            -23.70587,
            -24.98607,
            -26.33249,
            -27.65685,
            -29.04741,
            -30.34969,
            -31.62989,
            -32.9101,
            -34.14616,
            -35.47051,
            -36.70657,
            -37.98677,
            -39.26698,
            -40.52511,
            -41.76117,
            -43.04137,
            -44.2995,
            -45.55764,
            -46.81578,
            -48.05183,
            -49.33204,
            -50.5019,
            -51.6938,
            -52.95195,
            -54.12175,
            -55.3799,
            -56.5718,
            -57.7858,
            -58.9998,
            -60.23585,
            -61.6264,
            -62.8404,
            -64.0544,
            -65.20215,
            -66.41615,
            -67.586,
            -68.75585,
            -69.94775,
            -71.16175,
            -72.35365,
            -73.54555,
            -74.67125,
            -75.79695,
            -77.09925,
            -78.44565,
            -79.72585,
            -80.87365,
            -82.22005,
            -83.52235,
            -84.78045,
            -86.08275,
            -87.42915,
            -88.66525,
            -89.9013,
            -91.1594,
            -92.41755,
            -93.63155,
            -94.84555,
            -96.01535,
            -97.2956,
            -98.4654,
            -99.5911,
            -100.7831,
            -102.0632,
            -103.4097,
            -104.6898,
            -105.9259,
            -107.1399,
            -108.3539,
            -109.6121,
            -110.826,
            -112.018,
            -113.254,
            -114.3576,
            -115.5054,
            -116.7194,
            -117.9555,
            -119.2798,
            -120.4717,
            -121.5974,
            -122.9438,
            -124.2241,
            -125.3497,
            -126.5637,
            -127.7115,
            -128.8593,
            -130.1174,
            -131.4196,
            -132.6337,
            -133.8697,
            -135.0175,
            -136.2977,
            -137.5338,
            -138.7478,
            -139.8734,
            -141.0432,
            -142.169,
            -143.3388,
            -144.597,
            -145.8772,
            -147.1794,
            -148.3714,
            -149.6074,
            -150.7331,
            -151.8588,
            -152.9624,
            -154.1322,
            -155.4125,
            -156.7368,
            -157.9288,
            -159.0765,
            -160.2684,
            -161.3721,
            -162.6081,
            -163.9104,
            -165.1906,
            -166.3383,
            -167.6627,
            -168.8326,
            -170.0024,
            -171.2384,
            -172.4303,
            -173.6223,
            -174.7701,
            -176.0724,
            -177.2643,
            -178.412,
            -179.7363,
            -180.8842,
            -182.1422,
            -183.4445,
            -184.7247,
            -185.9167,
            -187.0423,
            -188.2563,
            -189.4262,
            -190.5519,
            -191.7438,
            -192.8695,
            -194.238,
            -195.5182,
            -196.4673,
            -197.6813,
            -198.9173,
            -200.1093,
            -197.7917,
            -196.9308,
            -195.761,
            -194.1718,
            -192.8033,
            -191.4127,
            -190.1546,
            -188.8082,
            -187.4617,
            -186.2257,
            -184.9675,
            -183.6211,
            -182.4733,
            -181.1711,
            -179.9571,
            -178.6989,
            -177.3526,
            -175.9841,
            -174.5714,
            -173.2029,
            -171.8123,
            -170.4218,
            -169.0533,
            -167.7068,
            -166.3383,
            -164.9919,
            -163.6676,
            -162.3432,
            -160.9747,
            -159.6284,
            -157.9729,
            -156.3174,
            -154.7061,
            -153.5804,
            -151.9471,
            -150.8434,
            -149.7177,
            -148.6142,
            -146.9587,
            -145.3695,
            -144.2438,
            -142.5883,
            -141.4626,
            -139.8293,
            -138.2842,
            -136.5847,
            -134.9733,
            -133.8697,
            -132.2584,
            -130.7133,
            -129.5876,
            -128.0205,
            -126.4092,
            -124.8642,
            -123.2529,
            -122.1492,
            -121.0014,
            -119.7875,
            -118.6397,
            -117.4698,
            -116.3221,
            -115.1743,
            -113.9603,
            -112.1724,
            -110.9806,
            -109.2589,
            -107.5593,
            -106.4336,
            -105.2417,
            -103.5863,
            -102.3502,
            -101.2245,
            -100.0988,
            -98.44335,
            -97.2956,
            -96.03745,
            -94.691,
            -93.45495,
            -92.1306,
            -90.80625,
            -89.37155,
            -88.02515,
            -86.6787,
            -85.26605,
            -83.8976,
            -82.46285,
            -81.2268,
            -79.83625,
            -78.60015,
            -77.31995,
            -76.12805,
            -74.93615,
            -73.63385,
            -72.26535,
            -70.8527,
            -69.418,
            -67.895,
            -66.26165,
            -64.56205,
            -62.8404,
            -60.9863,
            -59.2426,
            -57.43265,
            -55.5565,
            -53.81275,
            -52.0028,
            -50.1708,
            -48.36084,
            -46.61712,
            -44.82925,
            -43.06345,
            -41.27557,
            -39.39941,
            -37.65569,
            -35.82367,
            -34.05787,
            -32.20377,
            -30.4159,
            -28.53975,
            -26.66358,
            -24.83156,
            -22.86711,
            -20.99095,
            -19.04856,
            -17.15034,
            -15.2521,
            -13.35386,
            -11.4777,
            -9.53532,
            -7.482575,
            -6.378955,
            -4.32621,
            -2.82528,
            -1.103625,
            1.103625,
            2.38383,
            3.575745,
            4.701443,
            5.849215,
            7.87988,
            9.844335,
            11.14661,
            12.29438,
            13.398,
            14.8548,
            16.02464,
            17.92287,
            19.86525,
            21.71934,
            23.63965,
            25.8469,
            27.10503,
            28.34109,
            29.55507,
            31.58574,
            33.59435,
            34.72004,
            37.01559,
            38.29579,
            39.42149,
            40.78998,
            42.15847,
            43.48283,
            44.87339,
            46.21981,
            47.69867,
            49.00095,
            50.43565,
            51.7821,
            53.17265,
            54.7398,
            56.1083,
            57.43265,
            59.02185,
            60.4566,
            61.803,
            63.1715,
            64.6062,
            65.79815,
            66.9459,
            68.2923,
            69.6608,
            70.9631,
            72.28745,
            73.5235,
            74.75955,
            76.0177,
            77.34205,
            78.6443,
            79.83625,
            81.09435,
            82.30835,
            83.4782,
            84.8246,
            86.08275,
            87.2526,
            88.48865,
            89.70265,
            90.8504,
            92.10855,
            93.2563,
            94.4703,
            95.6622,
            96.7879,
            98.02395,
            99.2821,
            100.4078,
            101.6218,
            102.8358,
            105.2417,
            106.3674,
            107.5152,
            108.7733,
            110.9806,
            112.1945,
            113.2981,
            114.468,
            115.682,
            116.8076,
            117.9996,
            119.2577,
            120.3614,
            121.5974,
            122.701,
            123.893,
            125.0628,
            126.2105,
            127.3363,
            128.484,
            129.5876,
            130.8017,
            132.0157,
            133.1414,
            134.3112,
            135.4148,
            137.6882,
            140.0058,
            141.1537,
            142.2793,
            143.4713,
            144.597,
            146.8262,
            148.9453,
            150.1813,
            152.4769,
            154.662,
            155.8098,
            157.8846,
            159.0323,
            161.1954,
            162.3212,
            164.5063,
            166.5811,
            167.7068,
            169.7155,
            170.8412,
            172.8056,
            174.7921,
            175.9178,
            177.8161,
            179.7805,
            181.4801,
            183.2238,
            184.9896,
            186.6892,
            188.0577,
            189.2496,
            189.8235,
            188.1902,
            189.1172,
            190.2428,
            191.5231,
            192.715,
            193.5538,
            193.4434,
            192.119,
            190.7285,
            189.4041,
            187.8591,
            186.623,
            185.2986,
            184.0405,
            182.5616,
            181.3256,
            179.9129,
            178.5665,
            177.0435,
            175.6088,
            174.2624,
            173.0704,
            171.8565,
            170.5101,
            169.1857,
            167.9938,
            166.7136,
            165.4996,
            164.2856,
            163.0937,
            161.8356,
            160.5333,
            159.4076,
            158.1936,
            157.1562,
            155.9863,
            154.662,
            153.5363,
            152.3885,
            151.2849,
            150.1371,
            148.9453,
            147.7754,
            146.2744,
            144.8398,
            143.5154,
            142.1248,
            140.8667,
            139.5644,
            138.3504,
            137.0923,
            135.6797,
            134.0463,
            132.5895,
            131.0665,
            129.6318,
            128.1088,
            126.6962,
            125.1069,
            123.7163,
            122.2154,
            120.869,
            119.3018,
            117.8451,
            116.4103,
            114.8212,
            113.563,
            112.0621,
            110.6053,
            109.1926,
            107.7579,
            106.3232,
            104.8885,
            103.5201,
            101.997,
            100.7389,
            99.2821,
            97.89155,
            96.50095,
            95.1325,
            93.7419,
            92.24095,
            90.9387,
            89.54815,
            88.26795,
            86.78905,
            85.4206,
            84.07415,
            82.5732,
            81.2268,
            79.7921,
            78.46775,
            77.03305,
            75.6866,
            74.18565,
            72.77305,
            71.38245,
            70.10225,
            68.6896,
            67.3432,
            66.0409,
            64.73865,
            63.3481,
            62.0237,
            60.63315,
            59.3971,
            58.13895,
            56.85875,
            55.57855,
            54.3425,
            53.01815,
            51.8483,
            50.5019,
            49.30996,
            48.11805,
            46.83784,
            45.57971,
            44.3878,
            43.2621,
            42.11433,
            40.92242,
            38.75931,
            36.77279,
            34.74212,
            32.9101,
            31.27674,
            29.3785,
            27.67892,
            26.06763,
            24.7212,
            23.5955,
            22.38152,
            20.72608,
            19.07064,
            17.52556,
            16.135,
            15.0093,
            13.26558,
            11.89708,
            10.5948,
            9.380815,
            7.659155,
            6.29066,
            5.12082,
            3.818542,
            2.516265,
            1.390568,
            0.26487,
            -1.434713,
            -2.91357,
            -4.4145,
            -5.91543,
            -7.50465,
            -9.09387,
            -10.74931,
            -12.33853,
            -13.97189,
            -15.6494,
            -17.37106,
            -19.04856,
            -20.74815,
            -22.49187,
            -24.14731,
            -25.86897,
            -27.56855,
            -29.06948,
            -30.6587,
            -32.22585,
            -33.74885,
            -35.316,
            -36.92729,
            -38.78138,
            -40.34853,
            -41.95982,
            -43.70355,
            -45.5135,
            -47.10271,
            -48.66986,
            -50.3253,
            -51.9145,
            -53.34925,
            -54.9164,
            -56.46145,
            -57.852,
            -59.3971,
            -60.87595,
            -62.2224,
            -63.6571,
            -65.0256,
            -66.3058,
            -67.54185,
            -68.9545,
            -70.25675,
            -71.5811,
            -72.8834,
            -74.0091,
            -75.24515,
            -76.4812,
            -77.6952,
            -78.93125,
            -80.1011,
            -81.2268,
            -82.86015,
            -84.49355,
            -85.6413,
            -87.1864,
            -88.73145,
            -89.92335,
            -91.336,
            -92.859,
            -94.2937,
            -95.5739,
            -97.0969,
            -98.50955,
            -100.0546,
            -101.1804,
            -102.6813,
            -104.1822,
            -105.2859,
            -106.3895,
            -107.5814,
            -108.685,
            -110.3625,
            -111.5102,
            -112.6801,
            -113.8279,
            -115.0198,
            -116.2559,
            -117.514,
            -118.6618,
            -119.9641,
            -121.156,
            -122.4583,
            -123.8488,
            -125.129,
            -126.343,
            -127.6452,
            -129.08,
            -130.3602,
            -131.6846,
            -132.9868,
            -134.2891,
            -135.6355,
            -136.8936,
            -138.218,
            -139.4982,
            -140.9108,
            -142.1028,
            -143.4933,
            -144.8398,
            -146.1641,
            -147.4664,
            -148.6803,
            -150.1371,
            -151.3953,
            -152.543,
            -153.9557,
            -155.1035,
            -156.4498,
            -157.6638,
            -158.9441,
            -160.136,
            -161.2838,
            -162.4536,
            -163.6013,
            -165.323,
            -166.9343,
            -168.0821,
            -169.6272,
            -170.7529,
            -172.2097,
            -173.4899,
            -174.6156,
            -175.9841,
            -177.2643,
            -178.5224,
            -180.0013,
            -181.4359,
            -182.6279,
            -183.7536,
            -184.4819,
            -184.5923,
            -184.813,
            -184.5261,
            -183.7977,
            -183.2238,
            -182.4733,
            -181.4139,
            -180.1999,
            -178.7872,
            -177.6174,
            -176.4917,
            -174.9908,
            -173.5782,
            -172.2097,
            -171.0618,
            -169.3623,
            -168.0379,
            -166.7578,
            -165.2126,
            -161.8135,
            -156.9576,
            -153.1169,
            -150.8876,
            -149.1439,
            -147.6871,
            -145.9875,
            -144.7514,
            -143.5374,
            -142.2793,
            -141.0654,
            -136.695,
            -131.1548,
            -125.5263,
            -120.6483,
            -119.1694,
            -115.9248,
            -110.7377,
            -108.994,
            -107.8242,
            -106.5219,
            -105.3079,
            -103.9614,
            -98.9731,
            -95.37525,
            -93.78605,
            -92.50585,
            -91.3581,
            -0.1986525
        ]
    }
}