{
    "Name": "Galeota et al. 1996, BB4",
    "Type": "Rectangular",
    "fpc": 80.0,
    "fyt": 430.0,
    "fsut": 0.0,
    "fyl": 430.0,
    "fsul": 0.0,
    "Width": 250.0,
    "Depth": 250.0,
    "L_Inflection": 1140.0,
    "L_Measured": 1140.0,
    "TestConfiguration": "Double Ended",
    "AxLoad": 1500.0,
    "P_Delta": "Shear provided",
    "dlb": 20.0,
    "dlb_c": 20.0,
    "nlb": 12.0,
    "cc_per": 30.0,
    "nib_per": 2.0,
    "cc_par": 30.0,
    "nib_par": 2.0,
    "SubType": "RI: Rectangular and interlocking ties",
    "nsl": 4.0,
    "dtb_rcs": 8.0,
    "s_rcs": 100.0,
    "FailureType": "Flexure",
    "data": {
        "disp": [
            0.09,
            0.16,
            0.24,
            0.31,
            0.39,
            0.46,
            0.53,
            0.6,
            0.7,
            0.78,
            0.86,
            0.96,
            1.03,
            1.14,
            1.24,
            1.34,
            1.41,
            1.51,
            1.61,
            1.71,
            1.79,
            1.86,
            1.94,
            2.02,
            2.11,
            2.2,
            2.29,
            2.39,
            2.54,
            2.63,
            2.73,
            2.83,
            2.92,
            3.04,
            3.13,
            3.22,
            3.31,
            3.4,
            3.54,
            3.64,
            3.74,
            3.84,
            3.94,
            4.04,
            4.14,
            4.25,
            4.35,
            4.46,
            4.56,
            4.66,
            4.77,
            4.87,
            4.97,
            5.07,
            5.23,
            5.38,
            5.49,
            5.58,
            5.74,
            5.85,
            6.0,
            6.16,
            6.27,
            6.43,
            6.58,
            6.75,
            6.91,
            7.07,
            7.23,
            7.4,
            7.51,
            7.73,
            7.91,
            8.01,
            8.18,
            8.41,
            8.58,
            8.75,
            8.92,
            9.05,
            9.31,
            9.49,
            9.72,
            9.89,
            10.12,
            10.29,
            10.47,
            10.71,
            10.94,
            11.18,
            11.42,
            11.65,
            11.83,
            12.12,
            12.36,
            12.66,
            12.9,
            13.14,
            13.44,
            13.74,
            13.98,
            14.28,
            14.52,
            14.76,
            15.11,
            15.41,
            15.71,
            16.01,
            16.24,
            16.6,
            16.9,
            17.21,
            17.86,
            18.5,
            19.22,
            19.45,
            19.5,
            19.4,
            19.29,
            19.16,
            19.05,
            18.93,
            18.81,
            18.69,
            18.56,
            18.45,
            18.33,
            18.17,
            18.05,
            17.93,
            17.78,
            17.61,
            17.48,
            17.32,
            17.13,
            17.01,
            16.81,
            16.68,
            16.49,
            16.36,
            16.18,
            16.05,
            15.86,
            15.67,
            15.53,
            15.35,
            15.17,
            15.04,
            14.92,
            14.73,
            14.6,
            14.41,
            14.28,
            14.09,
            13.97,
            13.77,
            13.6,
            13.41,
            13.21,
            13.09,
            12.9,
            12.77,
            12.59,
            12.4,
            12.19,
            12.0,
            11.86,
            11.67,
            11.5,
            11.35,
            11.13,
            10.92,
            10.78,
            10.64,
            10.5,
            10.35,
            10.2,
            10.06,
            9.85,
            9.71,
            9.57,
            9.43,
            9.29,
            9.08,
            8.93,
            8.76,
            8.57,
            8.39,
            8.21,
            8.04,
            7.85,
            7.67,
            7.5,
            7.32,
            7.15,
            6.98,
            6.8,
            6.65,
            6.48,
            6.32,
            6.16,
            6.01,
            5.85,
            5.71,
            5.57,
            5.43,
            5.3,
            5.17,
            5.03,
            4.91,
            4.78,
            4.63,
            4.48,
            4.29,
            4.13,
            3.99,
            3.88,
            3.77,
            3.62,
            3.51,
            3.36,
            3.22,
            3.11,
            2.97,
            2.87,
            2.76,
            2.64,
            2.53,
            2.41,
            2.3,
            2.18,
            2.06,
            1.93,
            1.81,
            1.67,
            1.54,
            1.41,
            1.28,
            1.16,
            1.02,
            0.88,
            0.75,
            0.61,
            0.46,
            0.33,
            0.21,
            0.08,
            -0.06,
            -0.18,
            -0.31,
            -0.44,
            -0.64,
            -0.77,
            -0.89,
            -1.02,
            -1.15,
            -1.27,
            -1.4,
            -1.53,
            -1.67,
            -1.86,
            -1.99,
            -2.12,
            -2.28,
            -2.52,
            -2.66,
            -2.8,
            -2.94,
            -3.09,
            -3.3,
            -3.44,
            -3.59,
            -3.74,
            -3.88,
            -4.09,
            -4.23,
            -4.37,
            -4.55,
            -4.72,
            -4.85,
            -5.04,
            -5.21,
            -5.39,
            -5.57,
            -5.7,
            -5.88,
            -6.06,
            -6.24,
            -6.43,
            -6.56,
            -6.74,
            -6.97,
            -7.16,
            -7.35,
            -7.54,
            -7.77,
            -7.97,
            -8.16,
            -8.35,
            -8.54,
            -8.73,
            -8.97,
            -9.22,
            -9.47,
            -9.71,
            -9.91,
            -10.1,
            -10.4,
            -10.6,
            -10.85,
            -11.15,
            -11.45,
            -11.71,
            -12.02,
            -12.39,
            -12.68,
            -13.03,
            -13.35,
            -13.6,
            -13.93,
            -14.3,
            -14.7,
            -15.09,
            -15.4,
            -15.71,
            -16.02,
            -16.38,
            -16.7,
            -17.09,
            -17.43,
            -17.83,
            -18.38,
            -18.88,
            -19.57,
            -20.15,
            -20.7,
            -21.14,
            -21.58,
            -22.0,
            -22.54,
            -22.99,
            -23.11,
            -23.01,
            -22.85,
            -22.69,
            -22.52,
            -22.36,
            -22.19,
            -21.97,
            -21.81,
            -21.64,
            -21.48,
            -21.31,
            -21.14,
            -20.98,
            -20.8,
            -20.64,
            -20.46,
            -20.3,
            -20.14,
            -19.9,
            -19.74,
            -19.57,
            -19.34,
            -19.12,
            -18.89,
            -18.72,
            -18.55,
            -18.38,
            -18.16,
            -17.99,
            -17.76,
            -17.54,
            -17.37,
            -17.19,
            -17.0,
            -16.8,
            -16.61,
            -16.42,
            -16.22,
            -16.02,
            -15.84,
            -15.64,
            -15.45,
            -15.26,
            -15.07,
            -14.88,
            -14.69,
            -14.49,
            -14.3,
            -14.11,
            -13.85,
            -13.66,
            -13.47,
            -13.29,
            -13.09,
            -12.88,
            -12.66,
            -12.45,
            -12.25,
            -12.03,
            -11.89,
            -11.68,
            -11.47,
            -11.27,
            -11.05,
            -10.92,
            -10.71,
            -10.49,
            -10.29,
            -10.06,
            -9.84,
            -9.63,
            -9.42,
            -9.21,
            -9.0,
            -8.78,
            -8.5,
            -8.29,
            -8.08,
            -7.95,
            -7.74,
            -7.54,
            -7.35,
            -7.15,
            -6.97,
            -6.77,
            -6.59,
            -6.46,
            -6.27,
            -6.15,
            -5.95,
            -5.82,
            -5.63,
            -5.5,
            -5.31,
            -5.18,
            -5.0,
            -4.87,
            -4.74,
            -4.55,
            -4.37,
            -4.19,
            -4.07,
            -3.89,
            -3.72,
            -3.55,
            -3.38,
            -3.27,
            -3.08,
            -2.91,
            -2.82,
            -2.67,
            -2.51,
            -2.36,
            -2.18,
            -2.06,
            -1.84,
            -1.71,
            -1.58,
            -1.45,
            -1.3,
            -1.16,
            -1.0,
            -0.89,
            -0.73,
            -0.57,
            -0.41,
            -0.25,
            -0.13,
            0.04,
            0.16,
            0.28,
            0.4,
            0.6,
            0.73,
            0.87,
            1.01,
            1.15,
            1.3,
            1.45,
            1.6,
            1.76,
            1.92,
            2.08,
            2.25,
            2.41,
            2.57,
            2.74,
            2.9,
            3.08,
            3.25,
            3.41,
            3.57,
            3.74,
            3.91,
            4.09,
            4.26,
            4.42,
            4.6,
            4.76,
            4.94,
            5.16,
            5.34,
            5.52,
            5.7,
            5.88,
            6.07,
            6.34,
            6.52,
            6.7,
            6.97,
            7.17,
            7.34,
            7.54,
            7.82,
            8.0,
            8.21,
            8.47,
            8.75,
            9.03,
            9.31,
            9.59,
            9.77,
            10.05,
            10.34,
            10.64,
            10.94,
            11.24,
            11.43,
            11.63,
            11.93,
            12.23,
            12.53,
            12.82,
            13.13,
            13.32,
            13.62,
            13.92,
            14.22,
            14.51,
            14.82,
            15.12,
            15.33,
            15.63,
            15.93,
            16.23,
            16.54,
            16.84,
            17.16,
            17.89,
            18.21,
            18.64,
            19.07,
            19.65,
            20.2,
            20.65,
            20.74,
            20.86,
            21.33,
            21.72,
            22.21,
            22.71,
            23.25,
            23.77,
            24.31,
            24.87,
            25.44,
            26.01,
            26.57,
            27.12,
            27.7,
            28.28,
            28.86,
            29.46,
            30.05,
            30.66,
            31.45,
            32.07,
            32.72,
            33.38,
            34.05,
            34.92,
            35.79,
            36.39,
            37.28,
            38.03,
            38.94,
            39.45,
            39.54,
            39.68,
            40.15,
            40.01,
            39.85,
            39.68,
            39.51,
            39.34,
            39.16,
            39.0,
            38.81,
            38.63,
            38.45,
            38.3,
            38.13,
            37.95,
            37.79,
            37.61,
            37.44,
            37.26,
            37.09,
            36.92,
            36.75,
            36.57,
            36.41,
            36.22,
            36.06,
            35.89,
            35.71,
            35.52,
            35.37,
            35.19,
            35.01,
            34.85,
            34.66,
            34.5,
            34.22,
            34.07,
            33.8,
            33.61,
            33.46,
            33.19,
            33.02,
            32.85,
            32.58,
            32.42,
            32.14,
            31.97,
            31.72,
            31.53,
            31.34,
            31.15,
            30.87,
            30.68,
            30.41,
            30.23,
            30.03,
            29.85,
            29.57,
            29.39,
            29.12,
            28.93,
            28.65,
            28.36,
            28.18,
            27.91,
            27.72,
            27.45,
            27.26,
            26.98,
            26.8,
            26.53,
            26.26,
            25.99,
            25.72,
            25.54,
            25.29,
            25.1,
            24.85,
            24.59,
            24.32,
            24.07,
            23.82,
            23.57,
            23.33,
            23.11,
            22.87,
            22.57,
            22.29,
            22.06,
            21.83,
            21.55,
            21.35,
            21.1,
            20.83,
            20.56,
            20.32,
            19.91,
            19.61,
            19.32,
            18.97,
            18.67,
            18.37,
            18.09,
            17.76,
            17.45,
            16.9,
            16.56,
            16.3,
            15.96,
            15.73,
            15.38,
            15.14,
            14.76,
            14.44,
            14.23,
            13.94,
            13.62,
            13.33,
            13.01,
            12.77,
            12.46,
            12.09,
            11.78,
            11.23,
            10.92,
            10.62,
            10.31,
            10.0,
            9.68,
            9.31,
            8.93,
            8.55,
            8.24,
            7.86,
            7.54,
            7.16,
            6.77,
            6.39,
            6.07,
            5.49,
            5.18,
            4.93,
            4.62,
            4.3,
            4.03,
            3.71,
            3.31,
            2.93,
            2.6,
            2.29,
            1.91,
            1.59,
            1.27,
            0.96,
            0.65,
            0.33,
            0.02,
            -0.29,
            -0.6,
            -0.9,
            -1.39,
            -1.69,
            -1.93,
            -2.23,
            -2.47,
            -2.76,
            -3.07,
            -3.31,
            -3.6,
            -3.91,
            -4.14,
            -4.43,
            -4.74,
            -4.98,
            -5.28,
            -5.52,
            -5.82,
            -6.11,
            -6.41,
            -6.71,
            -7.25,
            -7.54,
            -7.83,
            -8.06,
            -8.36,
            -8.65,
            -8.94,
            -9.23,
            -9.53,
            -9.83,
            -10.12,
            -10.42,
            -10.77,
            -11.13,
            -11.46,
            -11.94,
            -12.25,
            -12.55,
            -12.89,
            -13.24,
            -13.62,
            -13.98,
            -14.4,
            -14.76,
            -15.12,
            -15.55,
            -15.92,
            -16.34,
            -16.77,
            -17.27,
            -17.7,
            -17.83,
            -18.25,
            -18.68,
            -19.17,
            -19.61,
            -20.1,
            -20.64,
            -21.2,
            -21.72,
            -22.31,
            -22.76,
            -23.31,
            -23.84,
            -24.37,
            -24.92,
            -25.41,
            -25.85,
            -26.39,
            -26.97,
            -27.49,
            -28.08,
            -28.57,
            -29.09,
            -29.6,
            -30.12,
            -30.67,
            -31.2,
            -31.75,
            -32.31,
            -32.88,
            -33.44,
            -33.98,
            -34.55,
            -35.13,
            -35.75,
            -36.36,
            -36.56,
            -37.05,
            -37.61,
            -38.19,
            -38.71,
            -39.23,
            -39.75,
            -40.28,
            -40.47,
            -40.93,
            -41.39,
            -41.87,
            -42.27,
            -42.67,
            -43.08,
            -43.46,
            -43.81,
            -43.98,
            -44.32,
            -44.37,
            -44.77,
            -44.97,
            -44.76,
            -44.55,
            -44.32,
            -44.11,
            -43.92,
            -43.69,
            -43.49,
            -43.23,
            -42.72,
            -42.51,
            -42.28,
            -42.08,
            -41.86,
            -41.65,
            -41.43,
            -41.21,
            -40.99,
            -40.71,
            -40.53,
            -40.34,
            -40.08,
            -39.81,
            -39.62,
            -39.36,
            -39.1,
            -38.91,
            -38.67,
            -38.39,
            -38.05,
            -37.78,
            -37.58,
            -37.33,
            -37.06,
            -36.78,
            -36.51,
            -36.25,
            -35.98,
            -35.8,
            -35.54,
            -35.27,
            -35.0,
            -34.75,
            -34.48,
            -34.21,
            -33.94,
            -33.75,
            -33.48,
            -33.22,
            -32.95,
            -32.59,
            -32.32,
            -32.04,
            -31.67,
            -31.3,
            -31.02,
            -30.74,
            -30.38,
            -30.01,
            -29.72,
            -29.45,
            -29.17,
            -28.89,
            -28.63,
            -28.35,
            -28.07,
            -27.79,
            -27.52,
            -27.25,
            -26.98,
            -26.71,
            -26.42,
            -26.15,
            -25.87,
            -25.59,
            -25.32,
            -25.04,
            -24.72,
            -24.36,
            -24.09,
            -23.8,
            -23.52,
            -23.24,
            -22.96,
            -22.67,
            -22.4,
            -22.11,
            -21.83,
            -21.47,
            -21.18,
            -20.82,
            -20.54,
            -20.27,
            -19.91,
            -19.54,
            -19.18,
            -18.76,
            -18.47,
            -17.98,
            -17.75,
            -17.51,
            -17.15,
            -16.8,
            -16.49,
            -16.16,
            -15.79,
            -15.31,
            -14.83,
            -14.52,
            -14.26,
            -14.0,
            -13.67,
            -13.41,
            -13.06,
            -12.69,
            -12.33,
            -11.97,
            -11.6,
            -11.25,
            -10.88,
            -10.52,
            -10.14,
            -9.66,
            -9.26,
            -8.77,
            -8.38,
            -8.07,
            -7.66,
            -7.24,
            -6.83,
            -6.42,
            -6.11,
            -5.69,
            -5.27,
            -4.86,
            -4.44,
            -4.01,
            -3.7,
            -3.28,
            -2.97,
            -2.54,
            -2.23,
            -1.91,
            -1.49,
            -1.19,
            -0.64,
            -0.31,
            0.1,
            0.42,
            0.73,
            1.16,
            1.58,
            1.9,
            2.31,
            2.63,
            3.01,
            3.42,
            3.73,
            4.06,
            4.49,
            4.92,
            5.36,
            5.79,
            6.12,
            6.55,
            6.99,
            7.42,
            7.87,
            8.2,
            8.63,
            9.07,
            9.4,
            9.83,
            10.29,
            10.71,
            11.16,
            11.61,
            12.16,
            12.61,
            12.94,
            13.39,
            13.94,
            14.39,
            14.96,
            15.52,
            16.09,
            16.55,
            17.11,
            17.57,
            18.14,
            18.72,
            19.29,
            19.88,
            20.44,
            21.03,
            21.6,
            22.18,
            22.77,
            23.35,
            23.93,
            24.52,
            25.11,
            25.7,
            26.28,
            26.87,
            27.47,
            28.07,
            28.66,
            29.25,
            29.86,
            30.46,
            31.09,
            31.69,
            32.3,
            32.94,
            33.56,
            34.18,
            34.78,
            35.41,
            36.04,
            36.66,
            37.3,
            37.93,
            38.59,
            39.23,
            39.72,
            39.79,
            39.92,
            39.69,
            39.46,
            39.26,
            38.95,
            38.81,
            38.49,
            38.36,
            38.13,
            37.93,
            37.7,
            37.48,
            37.27,
            37.05,
            36.85,
            36.62,
            36.41,
            36.19,
            35.98,
            35.76,
            35.54,
            35.34,
            35.11,
            34.9,
            34.68,
            34.46,
            34.24,
            34.02,
            33.81,
            33.59,
            33.39,
            33.15,
            32.86,
            32.73,
            32.51,
            32.3,
            32.08,
            31.87,
            31.64,
            31.44,
            31.22,
            31.01,
            30.79,
            30.58,
            30.36,
            30.14,
            29.94,
            29.72,
            29.51,
            29.17,
            28.97,
            28.76,
            28.54,
            28.33,
            28.12,
            27.92,
            27.7,
            27.38,
            27.17,
            26.95,
            26.63,
            26.33,
            26.12,
            25.82,
            25.62,
            25.42,
            25.1,
            24.82,
            24.52,
            24.22,
            23.94,
            23.66,
            23.39,
            23.1,
            22.93,
            22.62,
            22.36,
            22.11,
            21.86,
            21.61,
            21.32,
            21.0,
            20.74,
            20.45,
            20.14,
            19.84,
            19.54,
            19.13,
            18.86,
            18.49,
            18.15,
            17.84,
            17.53,
            17.18,
            16.58,
            16.3,
            15.93,
            15.56,
            15.26,
            14.99,
            14.71,
            14.42,
            14.14,
            13.95,
            13.55,
            13.26,
            12.69,
            12.4,
            12.1,
            11.69,
            11.4,
            11.09,
            10.68,
            10.3,
            9.8,
            9.51,
            9.2,
            8.79,
            8.49,
            8.18,
            7.78,
            7.36,
            6.77,
            6.48,
            6.17,
            5.76,
            5.45,
            5.03,
            4.45,
            4.13,
            3.83,
            3.52,
            3.1,
            2.68,
            2.26,
            1.83,
            1.23,
            0.92,
            0.61,
            0.29,
            -0.14,
            -0.46,
            -0.89,
            -1.32,
            -1.84,
            -2.25,
            -2.57,
            -3.0,
            -3.42,
            -3.86,
            -4.28,
            -4.78,
            -5.1,
            -5.53,
            -5.96,
            -6.38,
            -6.71,
            -7.15,
            -7.65,
            -8.07,
            -8.4,
            -8.72,
            -9.15,
            -9.58,
            -10.13,
            -10.66,
            -10.98,
            -11.41,
            -11.85,
            -12.29,
            -12.74,
            -13.2,
            -13.71,
            -14.04,
            -14.49,
            -14.93,
            -15.38,
            -15.83,
            -16.35,
            -16.79,
            -17.25,
            -17.7,
            -18.27,
            -18.8,
            -19.35,
            -19.82,
            -20.39,
            -20.98,
            -21.5,
            -22.07,
            -22.64,
            -23.23,
            -23.82,
            -24.34,
            -24.92,
            -25.51,
            -26.1,
            -26.71,
            -27.24,
            -27.81,
            -28.4,
            -29.01,
            -29.53,
            -30.14,
            -30.75,
            -31.35,
            -31.89,
            -32.49,
            -32.97,
            -33.57,
            -34.13,
            -34.74,
            -35.24,
            -35.73,
            -36.25,
            -36.78,
            -37.28,
            -37.89,
            -38.42,
            -38.98,
            -39.57,
            -40.08,
            -40.59,
            -41.1,
            -41.66,
            -42.12,
            -42.58,
            -43.11,
            -43.61,
            -44.12,
            -44.16,
            -44.22,
            -44.55,
            -44.6,
            -44.35,
            -44.11,
            -43.88,
            -43.66,
            -43.43,
            -43.21,
            -42.99,
            -42.77,
            -42.55,
            -42.35,
            -42.15,
            -41.95,
            -41.73,
            -41.54,
            -41.33,
            -41.03,
            -40.82,
            -40.64,
            -40.44,
            -40.13,
            -39.82,
            -39.65,
            -39.35,
            -39.13,
            -38.85,
            -38.63,
            -38.34,
            -38.13,
            -37.94,
            -37.75,
            -37.54,
            -37.25,
            -36.95,
            -36.75,
            -36.43,
            -36.25,
            -35.95,
            -35.74,
            -35.44,
            -35.14,
            -34.94,
            -34.64,
            -34.45,
            -34.14,
            -33.93,
            -33.63,
            -33.44,
            -33.14,
            -32.93,
            -32.63,
            -32.31,
            -32.02,
            -31.71,
            -31.38,
            -31.08,
            -30.78,
            -30.57,
            -30.25,
            -29.94,
            -29.62,
            -29.32,
            -29.12,
            -28.82,
            -28.51,
            -28.21,
            -27.9,
            -27.7,
            -27.39,
            -27.18,
            -26.87,
            -26.55,
            -26.24,
            -25.93,
            -25.61,
            -25.3,
            -24.98,
            -24.78,
            -24.47,
            -24.15,
            -23.84,
            -23.52,
            -23.2,
            -22.88,
            -22.57,
            -22.27,
            -21.95,
            -21.64,
            -21.34,
            -20.92,
            -20.61,
            -20.31,
            -19.9,
            -19.4,
            -19.01,
            -18.72,
            -18.2,
            -17.91,
            -17.6,
            -17.31,
            -17.01,
            -16.65,
            -16.26,
            -15.75,
            -15.53,
            -15.23,
            -14.97,
            -14.7,
            -14.42,
            -14.12,
            -13.8,
            -13.31,
            -13.0,
            -12.69,
            -12.38,
            -12.07,
            -11.76,
            -11.32,
            -11.0,
            -10.5,
            -10.17,
            -9.83,
            -9.49,
            -9.13,
            -8.77,
            -8.42,
            -7.9,
            -7.54,
            -7.17,
            -6.8,
            -6.43,
            -6.06,
            -5.53,
            -5.16,
            -4.79,
            -4.42,
            -4.04,
            -3.66,
            -3.16,
            -2.63,
            -2.26,
            -1.87,
            -1.49,
            -1.24,
            -0.85,
            -0.47,
            0.06,
            0.45,
            0.83,
            1.22,
            1.6,
            1.99,
            2.52,
            2.91,
            3.29,
            3.66,
            4.04,
            4.53,
            5.03,
            5.28,
            5.68,
            6.07,
            6.6,
            6.99,
            7.38,
            7.93,
            8.33,
            8.72,
            9.12,
            9.65,
            10.18,
            10.73,
            11.12,
            11.52,
            12.05,
            12.6,
            13.16,
            13.56,
            13.96,
            14.5,
            15.04,
            15.45,
            16.0,
            16.57,
            17.12,
            17.67,
            18.21,
            18.76,
            19.34,
            19.92,
            20.46,
            21.02,
            21.57,
            22.14,
            22.71,
            23.27,
            23.83,
            24.4,
            24.98,
            25.55,
            26.13,
            26.69,
            27.32,
            27.89,
            28.48,
            29.06,
            29.65,
            30.24,
            30.83,
            31.43,
            32.02,
            32.62,
            33.21,
            33.81,
            34.4,
            35.05,
            35.65,
            36.26,
            36.87,
            37.49,
            38.15,
            38.86,
            39.44,
            39.49,
            40.06,
            40.16,
            39.86,
            39.69,
            39.52,
            39.37,
            39.2,
            39.03,
            38.87,
            38.7,
            38.35,
            38.02,
            37.7,
            37.37,
            37.04,
            36.87,
            36.71,
            36.37,
            36.21,
            36.03,
            35.71,
            35.37,
            35.2,
            34.88,
            34.71,
            34.56,
            34.23,
            33.88,
            33.71,
            33.39,
            33.05,
            32.73,
            32.55,
            32.23,
            31.89,
            31.58,
            31.42,
            31.08,
            30.75,
            30.42,
            30.1,
            29.95,
            29.62,
            29.28,
            28.96,
            28.64,
            28.3,
            27.96,
            27.64,
            27.34,
            27.04,
            26.74,
            26.43,
            26.13,
            25.84,
            25.54,
            25.25,
            24.97,
            24.69,
            24.42,
            24.03,
            23.75,
            23.49,
            23.3,
            22.98,
            22.72,
            22.48,
            22.12,
            21.78,
            21.53,
            21.19,
            20.84,
            20.49,
            20.11,
            19.8,
            19.48,
            19.04,
            18.75,
            18.14,
            17.74,
            17.34,
            16.92,
            16.5,
            16.23,
            15.81,
            15.53,
            15.25,
            14.84,
            14.42,
            14.13,
            13.7,
            13.18,
            12.89,
            12.59,
            12.3,
            12.01,
            11.71,
            11.41,
            10.96,
            10.3,
            10.01,
            9.71,
            9.41,
            9.11,
            8.66,
            8.2,
            7.68,
            7.24,
            6.79,
            6.34,
            5.88,
            5.34,
            4.89,
            4.58,
            4.13,
            3.66,
            3.35,
            2.82,
            2.51,
            2.05,
            1.74,
            1.27,
            0.8,
            0.32,
            -0.21,
            -0.68,
            -1.31,
            -1.94,
            -2.64,
            -2.95,
            -3.42,
            -3.9,
            -4.2,
            -4.73,
            -5.2,
            -5.68,
            -6.15,
            -6.7,
            -7.32,
            -7.96,
            -8.44,
            -8.91,
            -9.46,
            -9.61,
            -10.08,
            -10.56,
            -11.06,
            -11.62,
            -11.95,
            -12.44,
            -12.92,
            -13.42,
            -13.9,
            -14.45,
            -14.94,
            -15.42,
            -15.92,
            -16.47,
            -16.79,
            -17.44,
            -18.11,
            -18.66,
            -19.16,
            -19.65,
            -20.15,
            -20.72,
            -21.36,
            -21.85,
            -22.37,
            -22.93,
            -23.44,
            -24.11,
            -24.61,
            -25.16,
            -25.67,
            -26.18,
            -26.75,
            -27.24,
            -27.76,
            -28.27,
            -28.82,
            -29.35,
            -29.86,
            -30.45,
            -30.94,
            -31.47,
            -32.0,
            -32.53,
            -33.1,
            -33.63,
            -34.15,
            -34.75,
            -35.26,
            -35.79,
            -36.33,
            -36.56,
            -37.09,
            -37.61,
            -38.15,
            -38.74,
            -39.25,
            -39.79,
            -40.43,
            -40.94,
            -41.48,
            -42.01,
            -42.58,
            -43.14,
            -43.65,
            -44.2,
            -44.64,
            -45.05,
            -45.02,
            -44.76,
            -44.39,
            -44.09,
            -43.84,
            -43.67,
            -43.51,
            -43.17,
            -42.99,
            -42.81,
            -42.46,
            -42.11,
            -41.77,
            -41.41,
            -41.24,
            -40.9,
            -40.54,
            -40.19,
            -39.85,
            -39.66,
            -39.33,
            -38.99,
            -38.63,
            -38.29,
            -37.94,
            -37.63,
            -37.36,
            -37.1,
            -36.82,
            -36.58,
            -36.32,
            -36.04,
            -35.79,
            -35.54,
            -35.27,
            -35.02,
            -34.76,
            -34.35,
            -34.09,
            -33.84,
            -33.58,
            -33.3,
            -33.04,
            -32.63,
            -32.37,
            -32.1,
            -31.84,
            -31.57,
            -31.15,
            -30.75,
            -30.47,
            -30.17,
            -29.89,
            -29.62,
            -29.34,
            -29.05,
            -28.77,
            -28.48,
            -28.2,
            -27.92,
            -27.63,
            -27.34,
            -27.06,
            -26.77,
            -26.48,
            -26.18,
            -25.89,
            -25.61,
            -25.32,
            -25.02,
            -24.6,
            -24.3,
            -23.88,
            -23.58,
            -23.14,
            -22.87,
            -22.57,
            -22.3,
            -21.86,
            -21.42,
            -21.03,
            -20.59,
            -20.3,
            -19.84,
            -19.55,
            -19.28,
            -19.0,
            -18.58,
            -18.18,
            -17.6,
            -17.37,
            -16.93,
            -16.41,
            -16.04,
            -15.77,
            -15.53,
            -15.27,
            -14.86,
            -14.38,
            -14.1,
            -13.83,
            -13.42,
            -13.01,
            -12.6,
            -12.1,
            -11.83,
            -11.55,
            -11.1,
            -10.8,
            -10.3,
            -10.01,
            -9.7,
            -9.22,
            -8.75,
            -8.23,
            -7.92,
            -7.6,
            -7.12,
            -6.6,
            -6.12,
            -5.63,
            -5.09,
            -4.62,
            -4.3,
            -3.97,
            -3.43,
            -2.96,
            -2.63,
            -2.13,
            -1.62,
            -1.1,
            -0.77,
            -0.43,
            0.08,
            0.6,
            1.1,
            1.61,
            1.95,
            2.47,
            2.81,
            3.31,
            3.83,
            4.36,
            4.7,
            5.2,
            5.71,
            6.24,
            6.58,
            7.07,
            7.55,
            8.08,
            8.42,
            8.94,
            9.47,
            10.01,
            10.53,
            10.88,
            11.41,
            11.95,
            12.48,
            13.02,
            13.56,
            14.08,
            14.62,
            15.15,
            15.71,
            16.07,
            16.6,
            17.18,
            17.71,
            18.24,
            18.79,
            19.35,
            19.72,
            20.26,
            21.02,
            21.38,
            21.93,
            22.48,
            23.06,
            23.61,
            24.16,
            24.74,
            25.28,
            25.86,
            26.44,
            27.02,
            27.58,
            28.14,
            28.72,
            29.29,
            29.86,
            30.44,
            31.01,
            31.59,
            32.16,
            32.73,
            33.32,
            33.92,
            34.47,
            35.16,
            35.83,
            36.4,
            37.0,
            37.58,
            38.21,
            38.86,
            39.51,
            39.79,
            39.84,
            40.37,
            40.5,
            40.33,
            40.19,
            40.02,
            39.86,
            39.53,
            39.39,
            39.23,
            38.89,
            38.58,
            38.43,
            38.11,
            37.95,
            37.78,
            37.62,
            37.3,
            37.14,
            36.82,
            36.5,
            36.34,
            36.18,
            35.87,
            35.54,
            35.22,
            34.9,
            34.72,
            34.4,
            34.08,
            33.93,
            33.61,
            33.28,
            33.12,
            32.81,
            32.48,
            32.32,
            32.01,
            31.69,
            31.54,
            31.22,
            30.9,
            30.75,
            30.43,
            30.12,
            29.82,
            29.5,
            29.19,
            28.86,
            28.71,
            28.4,
            28.08,
            27.95,
            27.65,
            27.34,
            27.03,
            26.72,
            26.45,
            26.15,
            25.87,
            25.58,
            25.31,
            25.03,
            24.76,
            24.49,
            24.23,
            24.03,
            23.8,
            23.58,
            23.22,
            22.98,
            22.65,
            22.39,
            22.05,
            21.7,
            21.34,
            20.96,
            20.59,
            20.34,
            19.96,
            19.57,
            18.94,
            18.53,
            18.12,
            17.7,
            17.28,
            16.87,
            16.45,
            16.16,
            15.75,
            15.31,
            15.01,
            14.5,
            14.2,
            13.9,
            13.6,
            13.31,
            12.86,
            12.4,
            11.87,
            11.58,
            11.27,
            10.81,
            10.36,
            9.84,
            9.54,
            9.08,
            8.62,
            8.15,
            7.68,
            7.14,
            6.83,
            6.51,
            6.19,
            5.7,
            5.22,
            4.66,
            4.34,
            3.84,
            3.36,
            2.81,
            2.48,
            1.98,
            1.5,
            1.16,
            0.6,
            0.28,
            -0.22,
            -0.72,
            -1.06,
            -1.6,
            -2.1,
            -2.6,
            -3.1,
            -3.66,
            -4.16,
            -4.49,
            -4.99,
            -5.5,
            -6.07,
            -6.56,
            -7.07,
            -7.58,
            -8.15,
            -8.48,
            -8.99,
            -9.5,
            -10.07,
            -10.57,
            -10.91,
            -11.41,
            -11.97,
            -12.48,
            -13.0,
            -13.56,
            -14.07,
            -14.58,
            -15.09,
            -15.65,
            -16.16,
            -16.68,
            -17.25,
            -17.58,
            -18.1,
            -18.62,
            -19.2,
            -19.72,
            -20.23,
            -20.79,
            -21.32,
            -21.84,
            -22.37,
            -22.93,
            -23.46,
            -24.0,
            -24.57,
            -25.09,
            -25.62,
            -26.21,
            -26.74,
            -27.27,
            -27.8,
            -28.37,
            -28.93,
            -29.63,
            -30.21,
            -30.74,
            -31.29,
            -31.88,
            -32.42,
            -32.96,
            -33.51,
            -34.1,
            -34.65,
            -35.2,
            -35.81,
            -36.34,
            -36.91,
            -37.49,
            -38.04,
            -38.59,
            -39.2,
            -39.72,
            -40.3,
            -40.85,
            -41.37,
            -41.87,
            -42.42,
            -42.86,
            -42.9,
            -43.39,
            -43.93,
            -44.11,
            -43.83,
            -43.53,
            -43.22,
            -42.92,
            -42.6,
            -42.3,
            -42.0,
            -41.71,
            -41.41,
            -41.1,
            -40.81,
            -40.66,
            -40.35,
            -40.05,
            -39.74,
            -39.46,
            -39.3,
            -39.01,
            -38.7,
            -38.41,
            -38.1,
            -37.8,
            -37.49,
            -37.2,
            -36.89,
            -36.6,
            -36.29,
            -36.0,
            -35.7,
            -35.39,
            -35.09,
            -34.79,
            -34.5,
            -34.2,
            -33.9,
            -33.6,
            -33.3,
            -32.98,
            -32.68,
            -32.37,
            -32.07,
            -31.75,
            -31.43,
            -31.12,
            -30.82,
            -30.51,
            -30.19,
            -29.9,
            -29.58,
            -29.27,
            -28.96,
            -28.66,
            -28.35,
            -28.04,
            -27.73,
            -27.44,
            -27.13,
            -26.82,
            -26.5,
            -26.19,
            -25.89,
            -25.58,
            -25.28,
            -24.97,
            -24.67,
            -24.35,
            -24.03,
            -23.72,
            -23.42,
            -23.1,
            -22.79,
            -22.48,
            -22.16,
            -21.83,
            -21.51,
            -21.18,
            -20.87,
            -20.57,
            -20.16,
            -19.82,
            -19.25,
            -18.93,
            -18.61,
            -18.29,
            -17.98,
            -17.44,
            -17.18,
            -16.75,
            -16.25,
            -15.93,
            -15.59,
            -15.29,
            -14.93,
            -14.3,
            -13.91,
            -13.55,
            -13.19,
            -12.82,
            -12.21,
            -11.86,
            -11.49,
            -11.1,
            -10.49,
            -10.09,
            -9.69,
            -9.29,
            -8.64,
            -8.23,
            -7.77,
            -7.16,
            -6.73,
            -6.3,
            -5.65,
            -5.23,
            -4.76,
            -4.35,
            -3.93,
            -3.47,
            -3.04,
            -2.62,
            -2.15,
            -1.64,
            -1.1,
            -0.55,
            0.02,
            0.57,
            1.11,
            1.67,
            2.23,
            2.78,
            3.35,
            3.91,
            4.49,
            5.04,
            5.59,
            6.17,
            6.73,
            7.3,
            7.86,
            8.44,
            9.0,
            9.58,
            10.15,
            10.75,
            11.28,
            11.82,
            12.39,
            12.96,
            13.6,
            14.24,
            14.9,
            15.55,
            16.19,
            16.85,
            17.5,
            18.15,
            18.85,
            19.48,
            20.17,
            20.83,
            21.5,
            22.17,
            22.84,
            23.5,
            24.19,
            24.86,
            25.53,
            26.23,
            26.9,
            27.6,
            28.29,
            28.97,
            29.67,
            30.35,
            31.04,
            31.74,
            32.45,
            33.14,
            33.85,
            34.55,
            35.25,
            35.95,
            36.68,
            37.36,
            38.04,
            38.64,
            39.49,
            40.28,
            41.06,
            41.82,
            42.62,
            43.53,
            44.39,
            45.24,
            46.16,
            47.14,
            48.12,
            49.13,
            50.14,
            51.13,
            51.98,
            52.82,
            53.63,
            54.66,
            55.44,
            56.27,
            57.08,
            57.59,
            57.68,
            57.75,
            57.84,
            58.52,
            59.31,
            60.23,
            61.07,
            61.62,
            62.41,
            63.22,
            63.63,
            63.5,
            63.34,
            63.17,
            63.01,
            62.85,
            62.68,
            62.35,
            62.18,
            62.01,
            61.69,
            61.53,
            61.19,
            60.87,
            60.55,
            60.22,
            60.05,
            59.88,
            59.73,
            59.37,
            59.21,
            58.9,
            58.56,
            58.23,
            57.88,
            57.58,
            57.24,
            56.88,
            56.65,
            56.32,
            55.99,
            55.61,
            55.27,
            55.08,
            54.73,
            54.55,
            54.2,
            53.85,
            53.68,
            53.35,
            52.99,
            52.64,
            52.3,
            51.97,
            51.65,
            51.34,
            51.0,
            50.7,
            50.42,
            50.12,
            49.84,
            49.57,
            49.26,
            48.99,
            48.7,
            48.38,
            48.14,
            47.79,
            47.57,
            47.28,
            47.03,
            46.7,
            46.35,
            46.03,
            45.79,
            45.38,
            45.07,
            44.77,
            44.46,
            44.17,
            43.88,
            43.57,
            43.26,
            42.77,
            42.44,
            41.91,
            41.59,
            41.09,
            40.56,
            40.19,
            39.86,
            39.5,
            39.16,
            38.83,
            38.5,
            37.89,
            37.44,
            36.86,
            36.51,
            36.15,
            35.63,
            35.1,
            34.52,
            34.16,
            33.82,
            33.29,
            32.74,
            32.13,
            31.76,
            31.4,
            30.86,
            30.49,
            29.87,
            29.5,
            28.95,
            28.37,
            27.74,
            27.16,
            26.59,
            26.02,
            25.37,
            24.98,
            24.39,
            23.82,
            23.16,
            22.36,
            21.77,
            21.17,
            20.49,
            19.89,
            19.3,
            18.63,
            18.02,
            17.41,
            16.81,
            16.14,
            15.52,
            14.91,
            14.3,
            13.63,
            13.02,
            12.4,
            11.73,
            11.12,
            10.51,
            9.89,
            9.22,
            8.42,
            7.8,
            7.13,
            6.53,
            5.93,
            5.25,
            4.65,
            4.05,
            3.38,
            2.79,
            2.19,
            1.58,
            0.92,
            0.33,
            -0.28,
            -0.93,
            -1.53,
            -2.13,
            -2.73,
            -3.37,
            -3.97,
            -4.56,
            -5.21,
            -5.85,
            -6.53,
            -7.04,
            -7.73,
            -8.43,
            -8.94,
            -9.63,
            -10.33,
            -10.84,
            -11.52,
            -12.22,
            -12.73,
            -13.42,
            -14.11,
            -14.63,
            -15.32,
            -16.02,
            -16.53,
            -17.23,
            -18.01,
            -18.73,
            -19.54,
            -20.28,
            -20.82,
            -21.39,
            -21.91,
            -22.44,
            -23.0,
            -23.52,
            -24.34,
            -24.87,
            -25.39,
            -25.96,
            -26.48,
            -27.09,
            -27.85,
            -28.38,
            -28.96,
            -29.5,
            -30.09,
            -30.61,
            -31.15,
            -31.73,
            -32.25,
            -32.8,
            -33.38,
            -33.91,
            -34.47,
            -35.05,
            -35.58,
            -36.19,
            -36.71,
            -37.26,
            -37.85,
            -38.39,
            -38.99,
            -39.52,
            -40.07,
            -40.65,
            -41.2,
            -41.75,
            -42.34,
            -42.87,
            -43.5,
            -44.0,
            -44.62,
            -45.1,
            -45.65,
            -46.22,
            -46.73,
            -47.27,
            -47.74,
            -48.38,
            -48.85,
            -49.43,
            -49.87,
            -50.39,
            -50.81,
            -51.28,
            -51.77,
            -52.14,
            -52.63,
            -53.09,
            -53.5,
            -53.96,
            -54.4,
            -54.84,
            -55.32,
            -55.73,
            -56.22,
            -56.63,
            -57.08,
            -57.44,
            -57.65,
            -58.08,
            -58.52,
            -58.79,
            -59.17,
            -59.55,
            -59.96,
            -60.39,
            -60.83,
            -61.14,
            -61.54,
            -61.9,
            -62.29,
            -62.62,
            -63.06,
            -63.52,
            -63.88,
            -64.25,
            -64.25,
            -64.17,
            -64.05,
            -63.81,
            -63.51,
            -63.33,
            -63.15,
            -62.76,
            -62.56,
            -62.34,
            -61.97,
            -61.76,
            -61.54,
            -61.35,
            -61.16,
            -60.94,
            -60.73,
            -60.52,
            -60.12,
            -59.71,
            -59.48,
            -59.27,
            -58.89,
            -58.68,
            -58.24,
            -57.82,
            -57.4,
            -57.17,
            -56.72,
            -56.5,
            -56.09,
            -55.86,
            -55.41,
            -54.97,
            -54.51,
            -54.04,
            -53.57,
            -53.14,
            -52.68,
            -52.46,
            -52.0,
            -51.57,
            -51.14,
            -50.71,
            -50.28,
            -50.07,
            -49.64,
            -49.45,
            -49.15,
            -48.9,
            -48.64,
            -48.36,
            -48.11,
            -47.86,
            -47.59,
            -47.33,
            -47.05,
            -46.81,
            -46.57,
            -46.28,
            -45.79,
            -45.53,
            -45.29,
            -44.92,
            -44.47,
            -43.99,
            -43.74,
            -43.24,
            -42.8,
            -42.39,
            -42.01,
            -41.67,
            -41.33,
            -40.92,
            -40.41,
            -39.88,
            -39.35,
            -38.82,
            -38.3,
            -37.74,
            -37.16,
            -36.58,
            -35.93,
            -35.34,
            -34.75,
            -34.14,
            -33.53,
            -32.9,
            -32.29,
            -31.66,
            -31.03,
            -30.4,
            -29.78,
            -29.14,
            -28.51,
            -27.83,
            -27.24,
            -26.61,
            -25.96,
            -25.36,
            -24.7,
            -24.07,
            -23.43,
            -22.79,
            -22.14,
            -21.51,
            -20.89,
            -20.24,
            -19.6,
            -18.97,
            -18.32,
            -17.68,
            -17.02,
            -16.37,
            -15.75,
            -15.07,
            -14.46,
            -13.81,
            -13.17,
            -12.51,
            -11.87,
            -11.23,
            -10.58,
            -9.92,
            -9.27,
            -8.64,
            -7.96,
            -7.32,
            -6.67,
            -5.98,
            -5.36,
            -4.71,
            -4.05,
            -3.4,
            -2.72,
            -2.07,
            -1.4,
            -0.73,
            -0.08,
            0.6,
            1.27,
            1.93,
            2.6,
            3.3,
            3.95,
            4.62,
            5.29,
            5.97,
            6.66,
            7.33,
            8.02,
            8.7,
            9.39,
            10.08,
            10.78,
            11.46,
            12.14,
            12.84,
            13.53,
            14.24,
            14.93,
            15.65,
            16.35,
            17.06,
            17.76,
            18.49,
            19.19,
            19.93,
            20.66,
            21.42,
            22.2,
            22.95,
            23.72,
            24.49,
            25.26,
            26.04,
            26.81,
            27.59,
            28.34,
            29.13,
            29.9,
            30.67,
            31.46,
            32.21,
            32.99,
            33.73,
            34.44,
            35.12,
            35.81,
            36.51,
            37.2,
            37.93,
            38.66,
            39.4,
            40.12,
            40.85,
            41.57,
            42.31,
            43.03,
            43.78,
            44.78,
            45.7,
            46.61,
            47.51,
            48.36,
            49.24,
            50.15,
            51.11,
            52.07,
            53.01,
            53.68,
            54.59,
            55.51,
            56.49,
            57.33,
            57.83,
            58.75,
            59.6,
            60.43,
            61.31,
            62.17,
            63.04,
            63.92,
            64.83,
            65.81,
            66.51,
            67.34,
            68.49,
            69.4,
            70.26,
            71.22,
            71.37,
            71.5,
            71.61,
            71.7,
            71.8,
            71.81,
            71.56,
            71.3,
            71.04,
            70.76,
            70.49,
            70.21,
            69.98,
            69.55,
            69.16,
            68.77,
            68.49,
            68.34,
            68.07,
            67.68,
            67.24,
            66.84,
            66.46,
            66.18,
            65.85,
            65.48,
            65.08,
            64.69,
            64.31,
            63.94,
            63.56,
            63.15,
            62.8,
            62.46,
            62.18,
            61.93,
            61.66,
            61.37,
            61.08,
            60.84,
            60.44,
            60.16,
            59.91,
            59.69,
            59.37,
            58.98,
            58.7,
            58.27,
            57.96,
            57.64,
            57.31,
            56.97,
            56.6,
            56.22,
            55.87,
            55.52,
            55.13,
            54.77,
            54.4,
            54.04,
            53.65,
            53.29,
            52.92,
            52.53,
            52.15,
            51.77,
            51.4,
            51.01,
            50.63,
            50.26,
            49.86,
            49.47,
            49.1,
            48.71,
            48.31,
            47.92,
            47.53,
            47.14,
            46.74,
            46.31,
            45.92,
            45.51,
            45.1,
            44.58,
            44.09,
            43.53,
            43.18,
            42.7,
            42.12,
            41.7,
            41.34,
            40.84,
            40.33,
            39.77,
            39.35,
            38.94,
            38.55,
            38.06,
            37.23,
            36.48,
            35.73,
            35.04,
            34.23,
            33.37,
            32.6,
            31.43,
            30.64,
            29.92,
            29.12,
            28.32,
            27.54,
            26.71,
            25.95,
            25.11,
            24.37,
            23.62,
            22.46,
            21.67,
            20.87,
            20.1,
            19.27,
            18.52,
            17.7,
            16.95,
            16.06,
            15.15,
            14.17,
            13.35,
            12.55,
            11.86,
            11.14,
            10.38,
            9.5,
            8.63,
            7.77,
            6.96,
            6.1,
            5.19,
            4.38,
            3.52,
            2.66,
            1.81,
            0.98,
            0.1,
            -0.78,
            -1.61,
            -2.55,
            -3.38,
            -3.9,
            -4.75,
            -5.69,
            -6.6,
            -7.52,
            -7.95,
            -8.69,
            -9.42,
            -10.23,
            -11.07,
            -11.9,
            -12.96,
            -13.39,
            -13.96,
            -14.63,
            -15.37,
            -16.09,
            -16.83,
            -17.73,
            -18.57,
            -19.2,
            -19.81,
            -20.39,
            -21.14,
            -21.72,
            -22.44,
            -23.21,
            -23.92,
            -24.48,
            -25.16,
            -25.95,
            -26.66,
            -27.22,
            -27.94,
            -28.76,
            -29.51,
            -30.31,
            -31.12,
            -31.71,
            -32.51,
            -33.4,
            -34.27,
            -35.19,
            -36.1,
            -36.79,
            -37.63,
            -38.02,
            -38.53,
            -38.85,
            -39.19,
            -39.57,
            -39.89,
            -40.2,
            -40.49,
            -41.37,
            -41.71,
            -41.86,
            -41.99,
            -42.15,
            -42.31,
            -42.55,
            -42.67,
            -42.74,
            -42.42,
            -42.05,
            -41.68,
            -41.33,
            -40.95,
            -40.55,
            -40.19,
            -39.78,
            -39.41,
            -39.02,
            -39.02
        ],
        "force": [
            1.619,
            2.655,
            4.273,
            5.957,
            7.381,
            8.676,
            10.165,
            11.784,
            13.338,
            14.697,
            15.733,
            17.87,
            19.1,
            21.496,
            22.791,
            25.251,
            26.87,
            28.165,
            30.625,
            32.179,
            33.733,
            35.222,
            36.517,
            37.876,
            39.171,
            40.79,
            42.15,
            44.092,
            46.293,
            47.912,
            49.466,
            51.149,
            52.574,
            53.998,
            55.358,
            56.782,
            58.271,
            59.437,
            61.638,
            63.127,
            64.94,
            66.429,
            68.048,
            69.408,
            71.091,
            72.71,
            74.005,
            75.688,
            77.112,
            78.407,
            80.156,
            81.515,
            83.004,
            84.105,
            86.177,
            87.99,
            89.479,
            90.839,
            92.652,
            94.076,
            95.889,
            97.637,
            99.061,
            100.615,
            102.558,
            104.306,
            105.924,
            107.802,
            109.615,
            111.428,
            112.593,
            114.795,
            116.09,
            117.385,
            119.133,
            120.169,
            121.917,
            123.471,
            125.154,
            127.485,
            128.715,
            130.075,
            131.37,
            132.924,
            134.542,
            136.031,
            137.197,
            138.686,
            140.434,
            142.182,
            143.607,
            144.966,
            146.391,
            147.945,
            149.369,
            151.182,
            152.671,
            153.966,
            155.714,
            157.462,
            158.887,
            160.376,
            161.736,
            163.03,
            164.649,
            166.591,
            167.951,
            169.311,
            170.8,
            172.224,
            173.778,
            175.009,
            172.807,
            173.649,
            172.16,
            170.606,
            169.57,
            168.599,
            167.304,
            166.009,
            164.584,
            163.289,
            161.995,
            160.7,
            159.469,
            158.239,
            156.815,
            155.261,
            154.031,
            152.477,
            151.052,
            149.499,
            148.204,
            146.261,
            144.448,
            143.348,
            141.341,
            139.981,
            138.103,
            136.873,
            134.736,
            133.765,
            131.693,
            130.01,
            128.521,
            126.708,
            125.154,
            123.794,
            122.241,
            120.492,
            119.133,
            117.449,
            115.895,
            114.277,
            113.047,
            110.975,
            109.032,
            107.219,
            105.406,
            104.112,
            102.299,
            101.004,
            98.997,
            97.572,
            95.954,
            94.464,
            93.105,
            91.357,
            89.479,
            87.99,
            85.983,
            84.235,
            82.227,
            81.062,
            79.573,
            77.566,
            76.53,
            74.911,
            72.969,
            71.156,
            70.185,
            68.501,
            66.947,
            65.199,
            63.322,
            61.444,
            59.372,
            57.559,
            55.617,
            53.804,
            51.797,
            49.854,
            48.171,
            46.034,
            44.286,
            42.15,
            40.402,
            38.394,
            36.581,
            34.769,
            33.02,
            31.272,
            29.459,
            27.776,
            26.352,
            24.539,
            23.114,
            21.69,
            20.201,
            18.647,
            17.158,
            15.345,
            13.791,
            11.525,
            9.323,
            8.029,
            6.28,
            5.05,
            3.496,
            2.072,
            0.453,
            -1.295,
            -2.59,
            -4.467,
            -5.762,
            -7.057,
            -8.546,
            -10.165,
            -11.46,
            -13.079,
            -14.438,
            -16.122,
            -17.481,
            -19.489,
            -21.042,
            -22.596,
            -24.28,
            -26.157,
            -27.841,
            -29.718,
            -31.467,
            -33.02,
            -34.833,
            -36.258,
            -38.006,
            -39.56,
            -40.919,
            -42.473,
            -43.898,
            -45.775,
            -46.941,
            -48.948,
            -50.113,
            -51.538,
            -53.092,
            -54.451,
            -56.07,
            -57.43,
            -59.178,
            -60.602,
            -62.48,
            -64.034,
            -65.393,
            -66.818,
            -68.825,
            -70.055,
            -71.544,
            -72.839,
            -74.199,
            -76.595,
            -77.501,
            -79.12,
            -80.803,
            -82.163,
            -83.911,
            -85.465,
            -86.889,
            -88.184,
            -89.932,
            -91.098,
            -92.846,
            -94.4,
            -95.954,
            -97.507,
            -98.932,
            -100.486,
            -102.104,
            -103.464,
            -105.018,
            -106.248,
            -107.867,
            -109.485,
            -110.975,
            -112.529,
            -114.018,
            -115.442,
            -116.802,
            -118.291,
            -119.392,
            -120.751,
            -122.241,
            -123.6,
            -125.154,
            -126.643,
            -128.003,
            -129.363,
            -130.852,
            -132.082,
            -133.636,
            -134.931,
            -136.42,
            -137.844,
            -139.333,
            -141.082,
            -142.636,
            -144.189,
            -145.679,
            -147.103,
            -148.592,
            -149.887,
            -151.311,
            -152.865,
            -153.966,
            -155.52,
            -156.621,
            -158.175,
            -159.534,
            -161.023,
            -162.512,
            -163.743,
            -165.167,
            -166.527,
            -167.886,
            -166.527,
            -167.692,
            -168.987,
            -169.44,
            -169.699,
            -171.383,
            -172.937,
            -172.807,
            -170.994,
            -168.987,
            -167.627,
            -165.879,
            -164.325,
            -162.836,
            -161.023,
            -159.469,
            -157.98,
            -156.621,
            -155.002,
            -153.707,
            -152.347,
            -150.664,
            -149.434,
            -147.815,
            -146.585,
            -145.484,
            -143.542,
            -142.182,
            -140.887,
            -139.074,
            -137.521,
            -135.772,
            -134.283,
            -132.859,
            -131.111,
            -130.01,
            -128.068,
            -126.708,
            -124.766,
            -123.406,
            -121.787,
            -120.492,
            -119.327,
            -117.32,
            -115.831,
            -114.341,
            -113.176,
            -111.234,
            -110.133,
            -108.579,
            -106.831,
            -105.666,
            -104.112,
            -102.169,
            -101.263,
            -99.515,
            -97.831,
            -96.536,
            -94.853,
            -93.299,
            -91.421,
            -90.191,
            -88.767,
            -87.019,
            -85.076,
            -83.522,
            -81.968,
            -80.544,
            -79.314,
            -77.501,
            -76.141,
            -74.199,
            -72.839,
            -71.35,
            -69.731,
            -68.242,
            -66.688,
            -65.264,
            -63.84,
            -62.221,
            -60.861,
            -59.178,
            -57.559,
            -56.07,
            -53.998,
            -52.768,
            -51.408,
            -50.113,
            -48.495,
            -46.876,
            -44.934,
            -43.25,
            -41.437,
            -39.56,
            -37.876,
            -36.517,
            -34.704,
            -33.409,
            -31.596,
            -30.172,
            -28.294,
            -26.934,
            -24.992,
            -23.438,
            -21.496,
            -20.33,
            -18.776,
            -16.834,
            -14.892,
            -13.208,
            -11.719,
            -9.906,
            -8.029,
            -6.41,
            -4.597,
            -3.302,
            -2.007,
            -0.388,
            1.295,
            2.849,
            4.726,
            6.475,
            8.158,
            9.712,
            11.331,
            12.625,
            13.985,
            15.345,
            17.093,
            19.035,
            20.913,
            22.143,
            23.956,
            25.575,
            27.711,
            29.459,
            30.754,
            32.438,
            33.733,
            35.222,
            36.517,
            38.394,
            40.078,
            41.243,
            42.991,
            44.286,
            45.84,
            47.394,
            48.948,
            50.696,
            52.121,
            54.128,
            55.552,
            57.43,
            58.919,
            60.538,
            62.35,
            63.581,
            65.588,
            67.206,
            68.76,
            70.508,
            71.609,
            73.616,
            75.105,
            76.4,
            77.954,
            79.184,
            80.868,
            82.616,
            84.17,
            85.335,
            86.889,
            88.443,
            89.932,
            91.81,
            93.299,
            94.594,
            96.666,
            97.896,
            99.644,
            100.68,
            102.817,
            103.917,
            105.277,
            107.414,
            109.227,
            110.78,
            112.593,
            114.6,
            115.831,
            117.903,
            119.586,
            121.269,
            123.341,
            124.895,
            126.32,
            127.226,
            129.427,
            131.175,
            132.924,
            134.866,
            136.096,
            137.65,
            139.398,
            141.211,
            142.7,
            144.448,
            146.197,
            147.815,
            149.045,
            150.47,
            152.283,
            153.966,
            155.455,
            156.815,
            158.563,
            158.822,
            160.376,
            162.254,
            163.743,
            165.102,
            166.851,
            166.203,
            163.484,
            157.916,
            159.275,
            161.023,
            162.642,
            164.131,
            165.556,
            166.591,
            167.563,
            168.534,
            169.052,
            169.635,
            170.217,
            170.8,
            171.059,
            171.188,
            171.447,
            171.512,
            171.188,
            170.088,
            168.534,
            167.563,
            166.656,
            165.426,
            164.39,
            163.289,
            162.124,
            160.7,
            159.146,
            157.721,
            156.426,
            155.067,
            153.966,
            152.606,
            152.412,
            151.052,
            149.175,
            147.945,
            146.391,
            144.902,
            143.283,
            141.794,
            140.499,
            139.074,
            137.391,
            135.772,
            134.672,
            133.118,
            131.629,
            130.075,
            128.456,
            127.161,
            125.866,
            124.312,
            123.017,
            121.464,
            120.039,
            118.615,
            117.255,
            115.701,
            114.406,
            113.176,
            111.816,
            110.327,
            108.773,
            107.737,
            105.989,
            104.63,
            102.622,
            101.069,
            99.191,
            97.702,
            96.213,
            94.594,
            93.04,
            91.551,
            89.738,
            88.443,
            86.177,
            85.076,
            82.875,
            81.386,
            80.026,
            78.602,
            76.465,
            75.041,
            72.969,
            71.803,
            70.055,
            68.76,
            66.883,
            65.199,
            63.192,
            61.897,
            59.825,
            58.271,
            56.782,
            54.775,
            53.415,
            51.667,
            50.372,
            48.495,
            47.394,
            45.193,
            43.445,
            41.437,
            39.689,
            38.394,
            36.646,
            35.287,
            33.668,
            32.179,
            30.431,
            28.618,
            27.258,
            25.51,
            24.15,
            22.661,
            20.913,
            19.23,
            17.805,
            16.251,
            14.697,
            13.273,
            11.784,
            10.618,
            8.935,
            7.511,
            6.021,
            3.95,
            2.655,
            1.36,
            -0.583,
            -1.813,
            -3.237,
            -5.05,
            -6.604,
            -8.611,
            -10.554,
            -11.913,
            -13.532,
            -15.086,
            -16.445,
            -18.582,
            -20.136,
            -22.208,
            -23.438,
            -24.992,
            -26.157,
            -27.841,
            -29.654,
            -31.013,
            -32.308,
            -33.797,
            -35.675,
            -36.97,
            -38.589,
            -40.143,
            -41.373,
            -42.927,
            -44.351,
            -45.84,
            -47.588,
            -49.142,
            -50.437,
            -51.603,
            -53.351,
            -54.71,
            -56.2,
            -57.818,
            -59.113,
            -60.473,
            -61.509,
            -62.868,
            -64.228,
            -65.588,
            -66.688,
            -68.242,
            -69.731,
            -71.35,
            -72.839,
            -74.264,
            -76.141,
            -77.307,
            -78.861,
            -80.35,
            -81.58,
            -83.069,
            -84.429,
            -85.983,
            -87.537,
            -88.961,
            -90.385,
            -91.875,
            -93.299,
            -94.788,
            -96.277,
            -97.831,
            -99.191,
            -100.615,
            -102.169,
            -103.464,
            -104.953,
            -106.313,
            -107.867,
            -109.227,
            -110.457,
            -111.816,
            -113.435,
            -114.665,
            -116.284,
            -117.644,
            -119.197,
            -120.428,
            -121.982,
            -123.406,
            -124.895,
            -126.255,
            -127.744,
            -129.104,
            -130.399,
            -131.952,
            -133.183,
            -134.672,
            -136.031,
            -137.521,
            -138.945,
            -140.693,
            -141.535,
            -142.7,
            -144.384,
            -145.938,
            -147.232,
            -148.851,
            -150.017,
            -151.7,
            -153.124,
            -154.225,
            -155.908,
            -157.268,
            -158.304,
            -160.117,
            -161.088,
            -162.577,
            -161.282,
            -163.03,
            -164.196,
            -165.944,
            -167.174,
            -168.34,
            -169.376,
            -170.347,
            -171.188,
            -172.03,
            -171.447,
            -172.289,
            -172.937,
            -173.39,
            -173.843,
            -173.714,
            -172.483,
            -173.584,
            -174.037,
            -174.296,
            -172.483,
            -172.613,
            -173.196,
            -173.066,
            -173.584,
            -173.39,
            -173.26,
            -173.39,
            -173.196,
            -172.613,
            -171.901,
            -170.8,
            -170.8,
            -170.606,
            -170.153,
            -169.699,
            -168.275,
            -167.951,
            -167.692,
            -167.627,
            -167.174,
            -166.397,
            -166.268,
            -165.685,
            -164.39,
            -164.325,
            -163.937,
            -163.743,
            -163.225,
            -162.772,
            -162.383,
            -161.865,
            -161.541,
            -159.923,
            -159.858,
            -158.563,
            -158.369,
            -156.426,
            -154.614,
            -152.801,
            -151.052,
            -149.304,
            -147.75,
            -146.391,
            -144.643,
            -142.894,
            -139.269,
            -137.521,
            -136.031,
            -134.672,
            -132.924,
            -131.564,
            -130.075,
            -128.65,
            -126.902,
            -125.219,
            -123.859,
            -122.435,
            -120.881,
            -119.003,
            -117.838,
            -115.636,
            -114.277,
            -112.723,
            -111.234,
            -109.421,
            -107.025,
            -105.601,
            -104.306,
            -102.558,
            -100.939,
            -99.191,
            -97.443,
            -95.889,
            -94.076,
            -92.846,
            -91.033,
            -89.738,
            -87.86,
            -86.112,
            -84.429,
            -82.422,
            -81.256,
            -80.026,
            -78.213,
            -76.853,
            -75.041,
            -73.098,
            -71.739,
            -70.185,
            -68.178,
            -66.235,
            -64.94,
            -63.386,
            -61.638,
            -59.955,
            -58.53,
            -57.3,
            -55.876,
            -54.646,
            -52.638,
            -51.214,
            -49.79,
            -48.301,
            -46.941,
            -45.387,
            -43.768,
            -42.344,
            -40.531,
            -38.912,
            -37.423,
            -36.064,
            -34.251,
            -33.15,
            -31.467,
            -29.654,
            -28.1,
            -26.805,
            -25.251,
            -23.697,
            -22.208,
            -20.783,
            -19.294,
            -17.87,
            -16.445,
            -15.086,
            -13.273,
            -11.331,
            -10.23,
            -8.676,
            -6.669,
            -5.374,
            -3.561,
            -2.201,
            -0.583,
            -0.842,
            0.906,
            2.655,
            4.597,
            5.568,
            6.928,
            8.87,
            10.618,
            11.913,
            13.079,
            14.438,
            15.928,
            17.287,
            18.776,
            20.201,
            21.69,
            23.309,
            25.057,
            26.416,
            27.776,
            29.459,
            30.819,
            32.438,
            33.992,
            35.74,
            37.294,
            38.848,
            40.596,
            41.826,
            43.186,
            44.804,
            46.293,
            47.653,
            49.013,
            50.308,
            51.862,
            53.804,
            55.228,
            56.717,
            57.818,
            59.243,
            60.538,
            62.091,
            63.192,
            64.876,
            66.753,
            67.983,
            69.537,
            70.832,
            72.386,
            74.264,
            75.559,
            77.112,
            78.731,
            80.026,
            81.127,
            82.81,
            84.17,
            85.335,
            86.889,
            88.119,
            89.673,
            91.486,
            92.781,
            94.335,
            96.018,
            97.313,
            99.191,
            100.615,
            101.975,
            103.27,
            104.565,
            106.119,
            107.478,
            108.644,
            110.327,
            111.946,
            113.176,
            114.795,
            115.831,
            117.061,
            118.485,
            119.91,
            121.205,
            122.564,
            123.859,
            125.478,
            126.773,
            128.327,
            129.233,
            130.657,
            131.434,
            132.924,
            133.765,
            135.319,
            136.226,
            137.521,
            138.297,
            139.139,
            140.434,
            141.146,
            142.312,
            142.959,
            143.866,
            144.513,
            145.29,
            146.002,
            146.52,
            147.491,
            147.621,
            148.074,
            148.398,
            149.045,
            149.369,
            149.369,
            150.017,
            150.146,
            149.952,
            150.405,
            151.247,
            150.664,
            151.117,
            151.052,
            150.729,
            150.923,
            150.211,
            150.405,
            148.916,
            147.75,
            146.067,
            143.736,
            142.247,
            139.851,
            137.521,
            136.096,
            133.765,
            132.341,
            130.722,
            128.974,
            127.614,
            125.802,
            123.6,
            121.917,
            120.233,
            118.679,
            116.543,
            114.924,
            113.629,
            111.493,
            110.327,
            107.867,
            106.378,
            104.824,
            103.399,
            101.457,
            99.903,
            98.349,
            96.536,
            94.529,
            92.781,
            90.903,
            89.738,
            87.731,
            86.112,
            84.688,
            82.94,
            81.127,
            79.573,
            78.148,
            76.271,
            74.911,
            72.969,
            71.544,
            70.185,
            68.501,
            66.883,
            65.199,
            63.581,
            61.379,
            59.761,
            58.336,
            57.106,
            55.228,
            53.869,
            52.444,
            50.89,
            48.818,
            47.135,
            45.646,
            43.833,
            41.632,
            40.078,
            38.265,
            37.035,
            35.481,
            33.538,
            31.726,
            29.524,
            28.1,
            26.157,
            24.15,
            22.855,
            21.431,
            20.007,
            18.258,
            17.093,
            15.345,
            14.05,
            12.431,
            10.942,
            9.518,
            8.029,
            6.863,
            5.18,
            3.755,
            2.655,
            1.165,
            -0.647,
            -1.554,
            -3.237,
            -4.856,
            -6.863,
            -8.676,
            -9.323,
            -10.877,
            -12.561,
            -14.309,
            -15.733,
            -17.093,
            -18.388,
            -19.942,
            -21.172,
            -22.855,
            -24.539,
            -25.898,
            -27.258,
            -29.2,
            -30.754,
            -32.826,
            -34.056,
            -35.805,
            -37.488,
            -38.589,
            -40.143,
            -41.632,
            -42.991,
            -44.739,
            -46.034,
            -47.653,
            -49.336,
            -50.696,
            -52.185,
            -53.351,
            -54.71,
            -56.07,
            -57.365,
            -59.113,
            -60.084,
            -61.573,
            -62.933,
            -64.293,
            -66.17,
            -67.595,
            -69.149,
            -71.026,
            -71.544,
            -72.645,
            -74.264,
            -75.494,
            -76.853,
            -78.343,
            -80.156,
            -81.709,
            -81.968,
            -83.781,
            -84.882,
            -86.824,
            -88.378,
            -89.997,
            -91.486,
            -92.069,
            -93.493,
            -95.047,
            -96.731,
            -97.961,
            -99.256,
            -100.81,
            -101.263,
            -102.946,
            -104.047,
            -105.406,
            -107.025,
            -108.709,
            -110.327,
            -110.716,
            -111.881,
            -113.435,
            -114.989,
            -116.349,
            -117.773,
            -119.327,
            -119.327,
            -120.751,
            -122.241,
            -123.6,
            -124.895,
            -126.19,
            -126.19,
            -127.55,
            -129.298,
            -130.657,
            -132.276,
            -131.952,
            -133.571,
            -135.06,
            -136.42,
            -137.974,
            -137.326,
            -139.074,
            -140.693,
            -141.794,
            -143.024,
            -142.571,
            -144.189,
            -145.484,
            -146.585,
            -147.362,
            -147.103,
            -148.398,
            -149.304,
            -150.211,
            -149.887,
            -150.858,
            -151.959,
            -152.801,
            -152.153,
            -153.254,
            -153.901,
            -154.419,
            -153.707,
            -154.678,
            -155.067,
            -155.52,
            -155.973,
            -155.196,
            -155.714,
            -156.362,
            -156.75,
            -155.52,
            -156.103,
            -156.556,
            -156.167,
            -156.426,
            -154.678,
            -154.549,
            -155.261,
            -155.067,
            -155.261,
            -153.319,
            -152.153,
            -150.664,
            -152.153,
            -150.211,
            -148.204,
            -146.197,
            -144.384,
            -142.571,
            -140.693,
            -139.592,
            -137.585,
            -136.226,
            -134.672,
            -133.506,
            -131.823,
            -130.269,
            -128.974,
            -127.42,
            -126.06,
            -124.183,
            -122.953,
            -121.205,
            -119.845,
            -117.773,
            -116.025,
            -114.341,
            -112.529,
            -111.039,
            -109.032,
            -107.867,
            -105.795,
            -104.5,
            -103.205,
            -101.91,
            -100.551,
            -98.349,
            -96.731,
            -95.241,
            -93.623,
            -92.328,
            -90.191,
            -88.961,
            -87.019,
            -85.335,
            -83.717,
            -82.098,
            -80.674,
            -79.12,
            -77.695,
            -76.141,
            -74.717,
            -73.098,
            -71.803,
            -69.926,
            -68.501,
            -66.818,
            -65.07,
            -63.84,
            -61.962,
            -60.667,
            -59.307,
            -57.753,
            -56.264,
            -54.646,
            -53.156,
            -51.667,
            -50.113,
            -48.56,
            -46.682,
            -45.193,
            -43.833,
            -42.15,
            -40.79,
            -39.236,
            -37.423,
            -35.416,
            -33.927,
            -32.114,
            -30.301,
            -28.941,
            -27.647,
            -25.898,
            -24.15,
            -22.791,
            -21.301,
            -19.553,
            -17.999,
            -16.575,
            -14.762,
            -13.338,
            -11.784,
            -10.165,
            -8.352,
            -6.863,
            -5.309,
            -3.691,
            -3.108,
            -1.619,
            -0.259,
            1.165,
            3.302,
            4.726,
            6.28,
            7.705,
            9.388,
            11.136,
            11.525,
            12.82,
            14.115,
            15.669,
            16.834,
            18.323,
            20.136,
            21.755,
            22.532,
            24.215,
            25.898,
            27.258,
            29.006,
            30.56,
            32.179,
            33.603,
            34.769,
            36.258,
            37.488,
            39.171,
            40.596,
            42.085,
            43.704,
            44.675,
            46.293,
            48.042,
            49.466,
            50.89,
            52.315,
            53.156,
            54.905,
            56.459,
            58.077,
            59.372,
            60.926,
            62.739,
            63.645,
            65.199,
            66.753,
            68.242,
            69.602,
            70.897,
            72.386,
            73.357,
            75.105,
            76.659,
            78.213,
            79.702,
            81.127,
            81.774,
            83.522,
            84.882,
            86.436,
            87.925,
            89.349,
            89.867,
            91.227,
            92.652,
            94.141,
            95.695,
            97.184,
            98.349,
            99.061,
            101.004,
            102.299,
            103.723,
            105.212,
            107.155,
            107.867,
            108.968,
            110.586,
            112.334,
            113.629,
            113.888,
            115.572,
            117.126,
            118.226,
            119.651,
            120.946,
            122.241,
            122.305,
            124.118,
            125.413,
            126.643,
            128.068,
            128.974,
            129.298,
            130.852,
            132.017,
            132.988,
            133.96,
            135.06,
            135.319,
            136.29,
            137.521,
            138.233,
            138.945,
            139.074,
            140.046,
            140.823,
            141.858,
            141.405,
            142.376,
            142.894,
            143.801,
            144.189,
            144.837,
            144.513,
            145.096,
            145.29,
            145.549,
            146.067,
            145.549,
            146.261,
            146.585,
            146.844,
            146.65,
            146.585,
            144.189,
            145.096,
            143.801,
            144.707,
            142.7,
            140.175,
            138.88,
            137.197,
            135.513,
            134.283,
            132.859,
            131.37,
            129.881,
            127.55,
            124.701,
            121.852,
            119.392,
            116.802,
            115.636,
            114.147,
            111.622,
            109.939,
            108.968,
            106.378,
            104.047,
            102.428,
            99.968,
            98.349,
            97.313,
            95.112,
            92.457,
            90.839,
            88.378,
            85.918,
            83.717,
            82.227,
            79.573,
            77.112,
            74.846,
            73.551,
            71.156,
            68.437,
            66.17,
            63.84,
            62.739,
            60.279,
            57.753,
            55.682,
            53.221,
            51.02,
            48.818,
            46.552,
            44.61,
            42.15,
            40.337,
            37.876,
            36.064,
            34.51,
            32.373,
            30.949,
            28.618,
            27.452,
            25.445,
            22.985,
            21.107,
            19.553,
            18.194,
            16.769,
            14.568,
            13.143,
            11.59,
            10.165,
            8.611,
            6.669,
            5.18,
            4.144,
            2.849,
            1.36,
            -0.259,
            -2.201,
            -3.95,
            -5.244,
            -6.669,
            -8.676,
            -10.359,
            -11.913,
            -13.338,
            -14.892,
            -16.769,
            -18.129,
            -19.877,
            -21.884,
            -23.438,
            -25.704,
            -26.352,
            -27.906,
            -29.459,
            -31.272,
            -32.761,
            -33.927,
            -35.869,
            -36.905,
            -38.718,
            -40.272,
            -41.567,
            -42.927,
            -44.351,
            -46.034,
            -47.783,
            -48.754,
            -50.761,
            -52.703,
            -54.192,
            -56.653,
            -56.847,
            -58.984,
            -60.279,
            -61.832,
            -63.581,
            -65.07,
            -65.329,
            -66.624,
            -68.437,
            -69.796,
            -71.609,
            -72.71,
            -75.105,
            -75.235,
            -77.566,
            -79.961,
            -82.357,
            -82.875,
            -83.976,
            -85.788,
            -87.083,
            -88.767,
            -89.285,
            -91.616,
            -92.975,
            -94.4,
            -95.5,
            -97.961,
            -99.385,
            -101.069,
            -102.622,
            -102.817,
            -104.306,
            -105.148,
            -106.831,
            -108.579,
            -108.385,
            -109.874,
            -112.075,
            -113.435,
            -114.924,
            -116.025,
            -116.737,
            -118.032,
            -119.456,
            -121.399,
            -120.492,
            -122.629,
            -123.989,
            -125.737,
            -125.866,
            -127.096,
            -129.104,
            -130.204,
            -130.01,
            -131.629,
            -132.924,
            -134.478,
            -133.506,
            -134.931,
            -136.938,
            -137.844,
            -137.974,
            -139.139,
            -140.434,
            -139.916,
            -141.017,
            -141.6,
            -142.894,
            -142.636,
            -143.801,
            -144.707,
            -144.578,
            -145.031,
            -146.197,
            -146.585,
            -147.815,
            -147.362,
            -148.333,
            -149.045,
            -147.75,
            -148.592,
            -149.304,
            -150.793,
            -149.11,
            -149.758,
            -150.146,
            -151.57,
            -150.664,
            -151.052,
            -150.858,
            -150.017,
            -150.599,
            -151.959,
            -151.57,
            -150.793,
            -150.988,
            -151.311,
            -151.959,
            -149.887,
            -148.786,
            -145.679,
            -143.801,
            -141.276,
            -138.686,
            -137.067,
            -135.708,
            -134.283,
            -131.952,
            -130.722,
            -129.427,
            -126.967,
            -124.636,
            -122.435,
            -119.845,
            -118.226,
            -116.543,
            -113.888,
            -111.363,
            -109.227,
            -107.932,
            -105.795,
            -103.27,
            -101.004,
            -98.997,
            -96.407,
            -94.982,
            -93.04,
            -91.227,
            -89.414,
            -87.86,
            -86.371,
            -84.235,
            -82.81,
            -80.997,
            -79.443,
            -77.76,
            -76.206,
            -74.134,
            -72.451,
            -71.026,
            -69.343,
            -67.724,
            -66.235,
            -64.228,
            -62.739,
            -61.573,
            -60.084,
            -58.725,
            -56.653,
            -54.646,
            -53.156,
            -51.797,
            -50.502,
            -48.301,
            -46.941,
            -45.322,
            -43.898,
            -42.279,
            -40.337,
            -38.718,
            -36.905,
            -35.222,
            -33.862,
            -32.308,
            -30.56,
            -29.006,
            -27.193,
            -25.898,
            -24.409,
            -22.402,
            -20.524,
            -19.035,
            -16.64,
            -15.215,
            -13.014,
            -11.784,
            -10.359,
            -8.87,
            -6.928,
            -4.597,
            -3.043,
            -1.554,
            0.0,
            -0.129,
            1.619,
            3.173,
            4.403,
            6.669,
            8.417,
            9.259,
            10.813,
            12.366,
            14.179,
            15.539,
            16.64,
            18.388,
            19.877,
            21.56,
            22.337,
            24.15,
            25.51,
            27.647,
            29.654,
            31.272,
            32.114,
            33.279,
            35.028,
            36.711,
            38.394,
            39.236,
            40.725,
            42.085,
            44.545,
            45.711,
            46.941,
            48.301,
            50.049,
            51.473,
            52.574,
            54.905,
            56.782,
            57.883,
            59.761,
            60.926,
            62.48,
            63.645,
            65.134,
            66.688,
            68.696,
            70.249,
            71.091,
            72.904,
            74.264,
            75.947,
            76.659,
            78.925,
            80.674,
            82.357,
            82.94,
            84.17,
            86.242,
            87.796,
            88.249,
            90.191,
            91.875,
            93.428,
            94.205,
            96.148,
            97.119,
            98.22,
            99.191,
            100.81,
            102.558,
            103.982,
            104.565,
            106.119,
            107.608,
            109.032,
            109.68,
            111.816,
            112.982,
            113.435,
            114.989,
            116.478,
            117.838,
            117.903,
            119.456,
            120.751,
            120.816,
            122.37,
            123.665,
            124.895,
            125.025,
            126.449,
            127.873,
            128.197,
            129.298,
            130.528,
            130.981,
            131.37,
            132.729,
            133.571,
            134.736,
            134.024,
            135.384,
            136.485,
            135.967,
            137.326,
            138.233,
            137.521,
            138.815,
            139.851,
            140.175,
            140.499,
            141.405,
            141.082,
            141.988,
            142.506,
            141.729,
            142.247,
            142.7,
            142.376,
            142.636,
            142.894,
            143.283,
            142.441,
            142.506,
            142.441,
            140.952,
            139.722,
            140.952,
            139.787,
            138.621,
            137.067,
            135.319,
            134.413,
            131.564,
            130.01,
            128.456,
            126.449,
            123.6,
            122.241,
            120.298,
            118.679,
            117.255,
            115.701,
            113.888,
            112.334,
            109.421,
            107.478,
            106.119,
            104.63,
            102.558,
            99.709,
            97.313,
            95.241,
            93.299,
            91.292,
            89.026,
            87.342,
            85.141,
            83.004,
            81.127,
            79.12,
            76.853,
            75.494,
            73.163,
            70.897,
            69.408,
            67.336,
            65.329,
            63.775,
            61.509,
            59.372,
            57.106,
            54.516,
            52.703,
            50.243,
            48.883,
            47.265,
            45.128,
            43.704,
            42.02,
            40.078,
            37.876,
            36.064,
            33.862,
            32.373,
            30.431,
            28.553,
            26.74,
            24.798,
            23.309,
            21.949,
            20.007,
            18.776,
            17.481,
            16.122,
            13.985,
            12.561,
            10.683,
            9.582,
            7.575,
            6.021,
            4.662,
            3.302,
            1.942,
            0.388,
            -1.36,
            -2.849,
            -4.403,
            -6.41,
            -7.899,
            -9.582,
            -11.719,
            -13.532,
            -15.28,
            -16.834,
            -18.971,
            -20.848,
            -22.402,
            -23.179,
            -24.539,
            -25.963,
            -27.452,
            -28.941,
            -31.208,
            -33.15,
            -33.927,
            -35.869,
            -37.164,
            -38.977,
            -40.984,
            -42.085,
            -43.25,
            -45.646,
            -47.394,
            -49.142,
            -50.955,
            -51.667,
            -53.156,
            -54.257,
            -55.746,
            -57.753,
            -59.502,
            -60.279,
            -61.573,
            -63.386,
            -64.94,
            -65.717,
            -67.142,
            -68.954,
            -70.703,
            -72.192,
            -72.58,
            -73.94,
            -75.818,
            -77.048,
            -78.796,
            -79.508,
            -81.127,
            -82.81,
            -84.429,
            -85.335,
            -87.019,
            -88.119,
            -89.997,
            -91.68,
            -92.393,
            -94.141,
            -95.695,
            -97.184,
            -97.637,
            -98.997,
            -100.356,
            -102.169,
            -102.558,
            -103.917,
            -105.601,
            -107.025,
            -107.608,
            -109.227,
            -110.586,
            -111.169,
            -112.982,
            -114.082,
            -116.025,
            -116.284,
            -117.903,
            -119.392,
            -119.456,
            -120.881,
            -122.046,
            -123.212,
            -123.6,
            -125.089,
            -126.514,
            -126.514,
            -127.42,
            -128.909,
            -130.399,
            -130.204,
            -131.629,
            -132.859,
            -132.665,
            -134.283,
            -135.384,
            -134.866,
            -136.226,
            -137.262,
            -138.168,
            -138.168,
            -138.88,
            -140.628,
            -140.628,
            -141.47,
            -142.376,
            -141.923,
            -142.83,
            -143.607,
            -144.384,
            -143.542,
            -144.643,
            -145.29,
            -144.707,
            -145.808,
            -146.261,
            -145.938,
            -146.779,
            -147.297,
            -146.844,
            -147.491,
            -147.686,
            -147.103,
            -147.75,
            -148.204,
            -147.103,
            -145.743,
            -144.578,
            -145.743,
            -146.65,
            -144.578,
            -141.923,
            -139.592,
            -137.391,
            -135.06,
            -132.665,
            -130.852,
            -128.197,
            -126.255,
            -124.248,
            -121.982,
            -120.104,
            -118.744,
            -116.802,
            -114.795,
            -112.788,
            -110.975,
            -109.615,
            -107.478,
            -105.795,
            -103.594,
            -101.91,
            -99.45,
            -97.831,
            -95.824,
            -93.752,
            -92.069,
            -89.867,
            -88.184,
            -85.918,
            -84.17,
            -82.227,
            -80.22,
            -78.666,
            -76.595,
            -74.911,
            -72.904,
            -71.285,
            -69.343,
            -67.336,
            -65.847,
            -63.84,
            -62.48,
            -60.732,
            -59.372,
            -57.818,
            -55.811,
            -54.516,
            -52.897,
            -51.538,
            -49.984,
            -47.847,
            -46.552,
            -44.351,
            -42.732,
            -40.466,
            -38.912,
            -37.229,
            -35.157,
            -33.474,
            -31.596,
            -30.042,
            -28.1,
            -26.352,
            -24.733,
            -22.855,
            -21.625,
            -19.748,
            -18.129,
            -16.381,
            -14.827,
            -13.532,
            -11.654,
            -10.1,
            -8.223,
            -6.863,
            -5.244,
            -3.691,
            -2.137,
            -0.712,
            0.842,
            2.007,
            3.626,
            5.309,
            6.734,
            8.287,
            9.259,
            10.424,
            11.784,
            13.726,
            14.892,
            16.704,
            18.388,
            20.395,
            22.337,
            23.956,
            25.963,
            27.711,
            29.33,
            31.208,
            32.761,
            34.769,
            36.323,
            38.265,
            39.689,
            41.826,
            43.445,
            44.998,
            47.006,
            48.56,
            50.372,
            52.121,
            53.869,
            55.617,
            57.235,
            58.789,
            60.02,
            61.832,
            62.674,
            64.228,
            66.106,
            66.883,
            69.343,
            71.285,
            72.839,
            74.264,
            76.271,
            78.602,
            79.314,
            81.709,
            83.587,
            84.494,
            86.889,
            87.666,
            89.997,
            91.875,
            92.846,
            95.047,
            96.342,
            98.09,
            99.515,
            101.457,
            102.169,
            104.112,
            104.824,
            106.572,
            108.061,
            108.968,
            110.521,
            112.075,
            113.694,
            115.054,
            116.284,
            117.838,
            118.55,
            120.363,
            121.14,
            122.305,
            123.665,
            124.442,
            125.996,
            126.449,
            128.132,
            128.974,
            130.204,
            130.722,
            131.629,
            132.341,
            132.729,
            133.83,
            134.736,
            134.866,
            136.031,
            136.485,
            137.326,
            137.585,
            138.427,
            138.492,
            139.074,
            139.398,
            139.592,
            140.175,
            140.499,
            140.693,
            140.887,
            140.499,
            140.434,
            140.628,
            140.499,
            140.434,
            140.046,
            139.722,
            140.046,
            138.686,
            138.945,
            138.039,
            137.844,
            136.744,
            135.837,
            134.866,
            134.931,
            133.636,
            133.118,
            132.47,
            131.758,
            130.528,
            130.528,
            129.816,
            128.715,
            127.614,
            126.125,
            124.96,
            126.708,
            126.449,
            126.125,
            124.766,
            123.471,
            123.924,
            122.888,
            121.464,
            120.363,
            118.744,
            117.385,
            116.025,
            114.471,
            112.917,
            110.327,
            108.514,
            107.284,
            105.083,
            103.27,
            101.328,
            98.414,
            96.213,
            93.752,
            92.328,
            91.098,
            89.932,
            87.537,
            85.983,
            83.976,
            81.127,
            78.861,
            76.595,
            74.005,
            71.544,
            69.149,
            67.206,
            64.876,
            62.091,
            59.761,
            57.106,
            55.552,
            53.156,
            51.797,
            49.272,
            47.2,
            45.646,
            42.991,
            40.919,
            38.33,
            36.323,
            34.056,
            31.855,
            29.33,
            27.258,
            25.316,
            23.309,
            21.301,
            19.23,
            18.129,
            15.539,
            13.597,
            11.719,
            9.971,
            8.158,
            6.151,
            4.856,
            3.82,
            2.007,
            0.388,
            -1.101,
            -2.719,
            -4.144,
            -6.216,
            -7.77,
            -9.259,
            -10.877,
            -12.431,
            -13.985,
            -15.474,
            -17.481,
            -19.294,
            -21.172,
            -23.503,
            -24.992,
            -27.517,
            -29.459,
            -31.208,
            -32.567,
            -34.38,
            -35.61,
            -33.862,
            -35.934,
            -38.977,
            -40.725,
            -41.632,
            -43.38,
            -44.739,
            -46.941,
            -48.754,
            -49.79,
            -51.149,
            -52.509,
            -54.71,
            -56.523,
            -57.171,
            -58.725,
            -60.214,
            -61.638,
            -62.868,
            -63.71,
            -65.134,
            -66.818,
            -68.372,
            -68.825,
            -70.638,
            -72.386,
            -74.199,
            -74.393,
            -75.753,
            -77.112,
            -78.796,
            -79.12,
            -81.127,
            -82.616,
            -83.652,
            -84.105,
            -85.335,
            -86.76,
            -87.019,
            -88.314,
            -89.285,
            -90.839,
            -90.839,
            -92.328,
            -93.299,
            -94.594,
            -94.723,
            -95.824,
            -97.443,
            -97.054,
            -98.543,
            -100.033,
            -100.615,
            -101.392,
            -103.011,
            -103.658,
            -103.723,
            -105.212,
            -106.378,
            -106.248,
            -107.608,
            -108.709,
            -108.773,
            -110.521,
            -111.363,
            -112.723,
            -112.529,
            -113.888,
            -115.248,
            -115.183,
            -116.543,
            -117.579,
            -118.744,
            -118.679,
            -120.233,
            -121.593,
            -121.205,
            -123.212,
            -124.053,
            -124.248,
            -125.802,
            -127.161,
            -126.514,
            -128.262,
            -129.427,
            -129.427,
            -131.046,
            -131.823,
            -131.823,
            -132.924,
            -134.154,
            -134.218,
            -135.384,
            -136.485,
            -136.161,
            -137.521,
            -137.78,
            -139.139,
            -139.592,
            -140.823,
            -141.341,
            -140.887,
            -141.6,
            -142.376,
            -142.441,
            -143.153,
            -143.736,
            -144.254,
            -144.902,
            -145.096,
            -145.031,
            -145.29,
            -145.938,
            -146.65,
            -145.938,
            -147.297,
            -146.197,
            -147.491,
            -147.297,
            -147.491,
            -147.362,
            -148.139,
            -147.491,
            -148.851,
            -148.139,
            -148.592,
            -148.398,
            -148.204,
            -148.139,
            -148.916,
            -148.139,
            -148.851,
            -149.045,
            -147.945,
            -149.045,
            -147.686,
            -148.592,
            -148.139,
            -147.686,
            -147.945,
            -147.686,
            -147.297,
            -146.909,
            -146.779,
            -146.585,
            -146.002,
            -146.132,
            -145.225,
            -144.902,
            -143.736,
            -143.801,
            -142.571,
            -142.441,
            -142.7,
            -141.47,
            -141.6,
            -141.729,
            -140.369,
            -140.499,
            -140.369,
            -139.398,
            -139.592,
            -138.492,
            -138.686,
            -138.815,
            -137.585,
            -137.326,
            -136.808,
            -137.326,
            -137.326,
            -135.708,
            -136.29,
            -136.614,
            -135.125,
            -134.736,
            -134.931,
            -133.83,
            -134.283,
            -133.377,
            -133.377,
            -133.053,
            -132.47,
            -132.017,
            -131.823,
            -131.823,
            -130.463,
            -130.075,
            -130.075,
            -128.715,
            -126.06,
            -123.794,
            -122.046,
            -119.456,
            -118.097,
            -116.349,
            -113.435,
            -112.27,
            -110.068,
            -107.608,
            -105.86,
            -104.5,
            -103.14,
            -101.263,
            -100.162,
            -98.414,
            -96.601,
            -93.946,
            -91.098,
            -89.414,
            -88.119,
            -85.011,
            -83.781,
            -80.803,
            -77.501,
            -74.911,
            -73.357,
            -71.026,
            -69.084,
            -66.818,
            -65.329,
            -62.156,
            -59.631,
            -56.912,
            -54.516,
            -51.991,
            -49.984,
            -47.783,
            -46.099,
            -43.639,
            -40.984,
            -38.265,
            -35.869,
            -33.474,
            -31.726,
            -29.071,
            -27.452,
            -25.834,
            -24.344,
            -22.791,
            -21.042,
            -19.424,
            -17.87,
            -16.187,
            -14.568,
            -12.884,
            -11.072,
            -9.777,
            -8.029,
            -5.05,
            -3.691,
            -2.137,
            -0.647,
            1.554,
            4.403,
            5.827,
            8.482,
            10.165,
            12.043,
            14.179,
            15.151,
            17.222,
            19.1,
            21.755,
            24.215,
            26.611,
            29.265,
            31.661,
            34.38,
            36.387,
            38.848,
            39.43,
            42.15,
            44.61,
            46.552,
            48.56,
            50.696,
            52.897,
            54.516,
            56.588,
            58.53,
            60.667,
            61.832,
            63.969,
            65.199,
            67.142,
            69.084,
            70.508,
            72.192,
            73.292,
            75.3,
            76.724,
            77.954,
            79.314,
            80.415,
            81.515,
            82.875,
            84.364,
            85.335,
            86.889,
            87.731,
            88.637,
            89.932,
            91.098,
            91.68,
            93.234,
            93.687,
            95.112,
            96.148,
            96.407,
            97.766,
            98.608,
            99.32,
            100.81,
            101.522,
            102.363,
            103.464,
            104.306,
            104.824,
            106.119,
            106.766,
            108.191,
            108.773,
            109.421,
            110.586,
            111.169,
            111.946,
            113.176,
            113.824,
            114.082,
            115.377,
            116.349,
            116.737,
            117.903,
            118.356,
            119.456,
            120.039,
            120.298,
            121.464,
            122.046,
            122.111,
            123.212,
            123.924,
            124.312,
            124.895,
            125.478,
            126.449,
            126.708,
            127.161,
            128.068,
            128.327,
            128.456,
            129.363,
            129.816,
            129.622,
            130.916,
            130.722,
            132.017,
            131.888,
            132.211,
            132.794,
            132.924,
            132.924,
            133.571,
            133.636,
            133.442,
            134.024,
            134.089,
            133.636,
            134.542,
            134.089,
            134.542,
            134.413,
            133.83,
            134.413,
            133.636,
            133.895,
            133.571,
            133.636,
            132.988,
            132.341,
            132.924,
            132.211,
            132.47,
            131.758,
            131.758,
            130.657,
            130.787,
            130.01,
            129.168,
            128.327,
            128.003,
            126.578,
            126.578,
            125.802,
            124.96,
            123.406,
            121.14,
            120.492,
            119.003,
            118.291,
            117.644,
            116.284,
            115.701,
            113.953,
            114.082,
            113.435,
            112.593,
            112.529,
            111.428,
            110.521,
            109.421,
            107.608,
            105.471,
            103.853,
            101.263,
            98.997,
            97.119,
            96.99,
            95.954,
            94.4,
            92.911,
            91.551,
            89.738,
            87.99,
            88.573,
            86.565,
            84.235,
            82.227,
            79.508,
            77.954,
            75.3,
            73.616,
            70.638,
            67.789,
            64.746,
            62.739,
            61.573,
            59.631,
            56.976,
            53.998,
            51.149,
            48.689,
            46.552,
            44.092,
            41.373,
            38.589,
            36.128,
            33.409,
            30.754,
            28.165,
            25.769,
            23.244,
            20.783,
            19.23,
            17.999,
            15.992,
            13.985,
            11.525,
            9.777,
            7.057,
            5.762,
            4.403,
            2.914,
            1.748,
            -0.129,
            -1.295,
            -4.662,
            -6.863,
            -9.064,
            -11.007,
            -13.208,
            -15.021,
            -17.093,
            -19.23,
            -21.301,
            -23.891,
            -25.963,
            -28.359,
            -30.56,
            -32.761,
            -34.769,
            -37.164,
            -39.236,
            -41.373,
            -43.38,
            -45.775,
            -47.783,
            -49.66,
            -51.408,
            -53.415,
            -55.358,
            -57.3,
            -58.854,
            -60.602,
            -62.609,
            -64.422,
            -65.782,
            -67.595,
            -69.278,
            -70.832,
            -72.645,
            -74.199,
            -73.681,
            -75.559,
            -77.112,
            -78.602,
            -80.35,
            -80.868,
            -82.551,
            -84.17,
            -85.659,
            -87.407,
            -87.666,
            -89.091,
            -90.515,
            -91.939,
            -93.299,
            -95.436,
            -98.09,
            -99.061,
            -101.198,
            -103.594,
            -104.5,
            -106.766,
            -108.126,
            -109.874,
            -111.622,
            -113.176,
            -113.629,
            -115.118,
            -116.025,
            -117.449,
            -119.003,
            -119.327,
            -120.881,
            -121.982,
            -123.341,
            -123.082,
            -124.895,
            -125.154,
            -126.255,
            -127.614,
            -127.809,
            -128.456,
            -130.01,
            -131.046,
            -131.499,
            -131.629,
            -132.729,
            -133.506,
            -133.83,
            -134.413,
            -136.031,
            -136.031,
            -136.938,
            -137.521,
            -137.132,
            -138.815,
            -138.492,
            -139.787,
            -139.398,
            -140.823,
            -140.823,
            -141.146,
            -142.182,
            -141.794,
            -142.636,
            -142.182,
            -143.153,
            -142.83,
            -144.254,
            -143.801,
            -142.182,
            -142.571,
            -144.125,
            -143.995,
            -143.801,
            -144.837,
            -143.153,
            -141.794,
            -143.348,
            -143.477,
            -143.542,
            -143.93,
            -143.024,
            -142.894,
            -143.93,
            -143.089,
            -143.283,
            -142.441,
            -142.441,
            -141.988,
            -142.053,
            -140.823,
            -141.47,
            -140.24,
            -140.175,
            -139.916,
            -139.592,
            -138.88,
            -138.686,
            -137.715,
            -137.391,
            -136.226,
            -136.226,
            -134.672,
            -134.218,
            -132.859,
            -131.758,
            -130.269,
            -129.168,
            -126.449,
            -124.442,
            -122.759,
            -119.651,
            -117.903,
            -115.831,
            -112.982,
            -110.716,
            -108.773,
            -107.478,
            -100.615,
            -97.184,
            -95.824,
            -94.529,
            -92.975,
            -91.616,
            -89.932,
            -88.443,
            -87.278,
            -85.335,
            -83.199,
            -81.062,
            -79.055,
            -77.048,
            -74.846,
            -73.033,
            -70.832,
            -68.954,
            -66.947,
            -66.947
        ]
    }
}