{
    "Name": "Galeota et al. 1996, AA4",
    "Type": "Rectangular",
    "fpc": 80.0,
    "fyt": 430.0,
    "fsut": 0.0,
    "fyl": 430.0,
    "fsul": 0.0,
    "Width": 250.0,
    "Depth": 250.0,
    "L_Inflection": 1140.0,
    "L_Measured": 1140.0,
    "TestConfiguration": "Double Ended",
    "AxLoad": 1000.0,
    "P_Delta": "Shear provided",
    "dlb": 10.0,
    "dlb_c": 10.0,
    "nlb": 12.0,
    "cc_per": 30.0,
    "nib_per": 2.0,
    "cc_par": 30.0,
    "nib_par": 2.0,
    "SubType": "RI: Rectangular and interlocking ties",
    "nsl": 4.0,
    "dtb_rcs": 8.0,
    "s_rcs": 150.0,
    "FailureType": "Flexure",
    "data": {
        "disp": [
            -0.05,
            0.0,
            0.07,
            0.12,
            0.18,
            0.26,
            0.27,
            0.34,
            0.37,
            0.43,
            0.49,
            0.53,
            0.62,
            0.63,
            0.69,
            0.77,
            0.83,
            0.86,
            0.94,
            1.02,
            1.09,
            1.08,
            1.15,
            1.14,
            1.26,
            1.3,
            1.36,
            1.42,
            1.48,
            1.55,
            1.63,
            1.66,
            1.74,
            1.82,
            1.89,
            1.92,
            1.99,
            2.02,
            2.11,
            2.17,
            2.23,
            2.28,
            2.35,
            2.41,
            2.46,
            2.53,
            2.61,
            2.66,
            2.73,
            2.83,
            2.89,
            2.93,
            3.09,
            3.1,
            3.15,
            3.25,
            3.35,
            3.46,
            3.55,
            3.58,
            3.71,
            3.79,
            3.92,
            4.02,
            4.16,
            4.25,
            4.34,
            4.49,
            4.64,
            4.71,
            4.8,
            4.93,
            5.04,
            5.17,
            5.28,
            5.39,
            5.49,
            5.67,
            5.8,
            5.96,
            6.11,
            6.21,
            6.37,
            6.5,
            6.61,
            6.83,
            6.97,
            7.13,
            7.47,
            7.62,
            7.82,
            8.0,
            8.21,
            8.43,
            8.71,
            8.93,
            9.35,
            9.57,
            9.85,
            10.14,
            10.41,
            10.65,
            10.95,
            11.4,
            11.6,
            11.84,
            12.17,
            12.39,
            12.73,
            13.11,
            13.49,
            13.87,
            14.42,
            14.58,
            14.63,
            14.69,
            14.87,
            15.56,
            15.74,
            15.8,
            15.86,
            15.92,
            15.98,
            16.04,
            16.09,
            15.93,
            15.8,
            15.64,
            15.49,
            15.36,
            15.19,
            15.04,
            14.9,
            14.76,
            14.61,
            14.46,
            14.29,
            14.19,
            14.01,
            13.85,
            13.73,
            13.56,
            13.4,
            13.28,
            13.11,
            12.92,
            12.8,
            12.59,
            12.42,
            12.16,
            12.04,
            11.84,
            11.71,
            11.52,
            11.32,
            11.12,
            10.94,
            10.72,
            10.54,
            10.38,
            10.15,
            9.96,
            9.77,
            9.57,
            9.45,
            9.32,
            9.13,
            8.97,
            8.77,
            8.59,
            8.42,
            8.24,
            8.09,
            7.93,
            7.78,
            7.6,
            7.44,
            7.3,
            7.14,
            6.98,
            6.81,
            6.63,
            6.49,
            6.33,
            6.19,
            5.98,
            5.81,
            5.67,
            5.54,
            5.38,
            5.25,
            5.07,
            4.93,
            4.77,
            4.55,
            4.44,
            4.33,
            4.17,
            4.02,
            3.89,
            3.71,
            3.58,
            3.45,
            3.32,
            3.21,
            3.06,
            2.94,
            2.83,
            2.7,
            2.6,
            2.51,
            2.39,
            2.22,
            2.12,
            1.98,
            1.9,
            1.76,
            1.67,
            1.56,
            1.47,
            1.31,
            1.26,
            1.11,
            1.03,
            0.88,
            0.73,
            0.6,
            0.53,
            0.45,
            0.32,
            0.26,
            0.14,
            0.05,
            -0.03,
            -0.14,
            -0.2,
            -0.29,
            -0.38,
            -0.48,
            -0.59,
            -0.67,
            -0.76,
            -0.84,
            -0.94,
            -1.05,
            -1.15,
            -1.25,
            -1.36,
            -1.52,
            -1.59,
            -1.72,
            -1.93,
            -2.04,
            -2.21,
            -2.38,
            -2.48,
            -2.64,
            -2.77,
            -2.92,
            -3.05,
            -3.19,
            -3.31,
            -3.46,
            -3.63,
            -3.76,
            -3.9,
            -4.05,
            -4.22,
            -4.36,
            -4.51,
            -4.64,
            -4.81,
            -4.97,
            -5.1,
            -5.27,
            -5.5,
            -5.7,
            -5.89,
            -6.13,
            -6.33,
            -6.56,
            -6.77,
            -7.02,
            -7.24,
            -7.45,
            -7.68,
            -8.04,
            -8.33,
            -8.61,
            -8.82,
            -9.12,
            -9.48,
            -9.79,
            -10.12,
            -10.45,
            -10.7,
            -11.1,
            -11.41,
            -11.95,
            -12.38,
            -12.76,
            -13.18,
            -13.58,
            -14.03,
            -14.57,
            -15.17,
            -15.7,
            -16.21,
            -16.36,
            -16.5,
            -16.62,
            -16.67,
            -16.66,
            -16.55,
            -16.91,
            -17.0,
            -17.04,
            -17.05,
            -16.94,
            -16.82,
            -16.67,
            -16.5,
            -16.33,
            -16.14,
            -15.95,
            -15.77,
            -15.58,
            -15.44,
            -15.26,
            -15.07,
            -14.88,
            -14.7,
            -14.49,
            -14.33,
            -14.13,
            -13.96,
            -13.76,
            -13.55,
            -13.44,
            -13.22,
            -13.04,
            -12.86,
            -12.69,
            -12.5,
            -12.32,
            -12.12,
            -11.97,
            -11.75,
            -11.57,
            -11.39,
            -11.18,
            -10.98,
            -10.84,
            -10.68,
            -10.45,
            -10.27,
            -10.1,
            -9.89,
            -9.75,
            -9.55,
            -9.33,
            -9.17,
            -8.98,
            -8.82,
            -8.6,
            -8.38,
            -8.22,
            -8.02,
            -7.85,
            -7.66,
            -7.46,
            -7.25,
            -7.05,
            -6.9,
            -6.77,
            -6.61,
            -6.45,
            -6.34,
            -6.2,
            -6.09,
            -5.96,
            -5.76,
            -5.6,
            -5.49,
            -5.37,
            -5.23,
            -5.09,
            -4.91,
            -4.8,
            -4.7,
            -4.54,
            -4.4,
            -4.23,
            -4.1,
            -3.97,
            -3.82,
            -3.69,
            -3.55,
            -3.43,
            -3.29,
            -3.15,
            -3.0,
            -2.87,
            -2.73,
            -2.66,
            -2.51,
            -2.42,
            -2.25,
            -2.15,
            -2.0,
            -1.92,
            -1.84,
            -1.72,
            -1.59,
            -1.48,
            -1.37,
            -1.25,
            -1.11,
            -0.96,
            -0.86,
            -0.8,
            -0.66,
            -0.57,
            -0.47,
            -0.34,
            -0.22,
            -0.1,
            0.0,
            0.1,
            0.24,
            0.38,
            0.47,
            0.6,
            0.72,
            0.84,
            0.97,
            1.11,
            1.3,
            1.37,
            1.55,
            1.69,
            1.85,
            1.99,
            2.17,
            2.32,
            2.47,
            2.67,
            2.82,
            3.01,
            3.18,
            3.37,
            3.61,
            3.76,
            3.98,
            4.16,
            4.36,
            4.59,
            4.76,
            4.96,
            5.2,
            5.46,
            5.74,
            6.01,
            6.32,
            6.6,
            6.92,
            7.21,
            7.5,
            7.79,
            8.08,
            8.38,
            8.74,
            9.14,
            9.48,
            9.87,
            10.3,
            10.73,
            11.17,
            11.61,
            11.68,
            12.19,
            12.7,
            13.24,
            13.82,
            14.42,
            15.04,
            15.57,
            16.09,
            16.63,
            17.18,
            17.73,
            18.34,
            18.82,
            19.39,
            19.82,
            20.21,
            20.64,
            21.03,
            21.32,
            21.85,
            22.18,
            22.57,
            22.98,
            23.4,
            23.81,
            24.22,
            24.67,
            25.15,
            25.53,
            26.04,
            26.6,
            27.02,
            27.59,
            28.06,
            28.58,
            29.12,
            29.71,
            30.3,
            30.81,
            31.37,
            31.79,
            31.88,
            31.94,
            32.28,
            32.2,
            32.03,
            31.9,
            31.66,
            31.54,
            31.37,
            31.16,
            31.01,
            30.81,
            30.6,
            30.5,
            30.29,
            30.07,
            29.85,
            29.68,
            29.52,
            29.28,
            29.1,
            28.93,
            28.73,
            28.57,
            28.38,
            28.18,
            27.98,
            27.8,
            27.58,
            27.44,
            27.2,
            26.98,
            26.81,
            26.62,
            26.37,
            26.15,
            26.0,
            25.78,
            25.57,
            25.38,
            25.13,
            24.93,
            24.75,
            24.52,
            24.32,
            24.05,
            23.8,
            23.53,
            23.21,
            23.06,
            22.77,
            22.47,
            22.19,
            21.79,
            21.49,
            21.07,
            20.63,
            20.18,
            19.65,
            19.13,
            18.61,
            18.05,
            17.42,
            16.86,
            16.35,
            15.79,
            15.25,
            14.68,
            14.12,
            13.54,
            13.01,
            12.42,
            11.83,
            11.27,
            10.71,
            10.18,
            9.66,
            9.11,
            8.61,
            8.12,
            7.7,
            7.24,
            6.87,
            6.49,
            6.14,
            5.76,
            5.43,
            5.12,
            4.86,
            4.58,
            4.27,
            4.0,
            3.77,
            3.48,
            3.2,
            2.95,
            2.64,
            2.38,
            2.1,
            1.84,
            1.57,
            1.31,
            1.01,
            0.75,
            0.48,
            0.21,
            -0.07,
            -0.32,
            -0.59,
            -0.82,
            -1.15,
            -1.41,
            -1.69,
            -1.97,
            -2.25,
            -2.57,
            -2.82,
            -3.1,
            -3.37,
            -3.67,
            -3.92,
            -4.32,
            -4.61,
            -5.04,
            -5.42,
            -5.83,
            -6.27,
            -6.65,
            -7.09,
            -7.58,
            -8.12,
            -8.72,
            -9.26,
            -9.83,
            -10.37,
            -10.91,
            -11.41,
            -11.97,
            -12.55,
            -13.16,
            -13.79,
            -14.2,
            -14.56,
            -14.97,
            -15.36,
            -15.76,
            -16.24,
            -16.64,
            -16.98,
            -17.26,
            -17.58,
            -18.09,
            -18.63,
            -19.23,
            -19.81,
            -20.37,
            -20.89,
            -21.44,
            -22.01,
            -22.55,
            -23.18,
            -23.73,
            -24.35,
            -24.91,
            -25.47,
            -26.06,
            -26.63,
            -27.2,
            -27.78,
            -28.33,
            -28.87,
            -29.41,
            -30.02,
            -30.52,
            -31.1,
            -31.61,
            -32.18,
            -32.79,
            -33.37,
            -33.9,
            -34.42,
            -35.03,
            -35.54,
            -36.05,
            -36.14,
            -36.12,
            -35.86,
            -35.7,
            -35.4,
            -35.2,
            -34.98,
            -34.74,
            -34.43,
            -34.08,
            -33.92,
            -33.53,
            -33.17,
            -32.91,
            -32.48,
            -32.26,
            -31.97,
            -31.79,
            -31.54,
            -31.26,
            -30.99,
            -30.7,
            -30.51,
            -30.29,
            -30.05,
            -29.82,
            -29.49,
            -29.37,
            -29.04,
            -28.72,
            -28.64,
            -28.26,
            -27.99,
            -27.71,
            -27.62,
            -27.27,
            -27.02,
            -26.74,
            -26.39,
            -26.13,
            -25.87,
            -25.61,
            -25.17,
            -24.79,
            -24.29,
            -23.77,
            -23.26,
            -22.71,
            -22.21,
            -21.64,
            -21.12,
            -20.61,
            -20.06,
            -19.47,
            -18.89,
            -18.35,
            -17.78,
            -17.26,
            -16.64,
            -16.08,
            -15.54,
            -14.99,
            -14.46,
            -13.95,
            -13.42,
            -12.86,
            -12.27,
            -11.64,
            -11.12,
            -10.51,
            -9.97,
            -9.38,
            -8.8,
            -8.2,
            -7.52,
            -7.02,
            -6.42,
            -5.88,
            -5.34,
            -4.81,
            -4.16,
            -3.59,
            -3.06,
            -2.46,
            -1.96,
            -1.39,
            -0.79,
            -0.21,
            0.4,
            0.96,
            1.62,
            2.2,
            2.7,
            3.24,
            3.76,
            4.38,
            4.91,
            5.53,
            6.03,
            6.58,
            7.08,
            7.59,
            8.14,
            8.66,
            9.29,
            9.84,
            10.34,
            11.01,
            11.51,
            12.06,
            12.63,
            13.27,
            13.84,
            14.38,
            14.9,
            15.46,
            16.04,
            16.6,
            17.14,
            17.72,
            18.26,
            18.85,
            19.38,
            19.99,
            20.55,
            21.1,
            21.72,
            22.25,
            22.83,
            23.4,
            23.97,
            24.57,
            25.14,
            25.73,
            26.34,
            26.92,
            27.54,
            28.11,
            28.67,
            29.24,
            29.84,
            30.45,
            31.03,
            31.62,
            32.13,
            32.66,
            32.57,
            32.34,
            32.17,
            31.93,
            31.72,
            31.48,
            31.26,
            31.03,
            30.87,
            30.6,
            30.41,
            30.17,
            30.0,
            29.64,
            29.47,
            29.23,
            29.0,
            28.79,
            28.51,
            28.17,
            27.9,
            27.52,
            27.27,
            27.01,
            26.71,
            26.44,
            26.12,
            25.81,
            25.48,
            25.11,
            24.78,
            24.46,
            24.0,
            23.5,
            22.96,
            22.42,
            21.83,
            21.21,
            20.64,
            20.0,
            19.4,
            18.75,
            18.14,
            17.51,
            16.87,
            16.24,
            15.72,
            15.22,
            14.67,
            14.09,
            13.56,
            12.98,
            12.42,
            11.87,
            11.29,
            10.71,
            10.12,
            9.57,
            9.01,
            8.44,
            7.88,
            7.33,
            6.75,
            6.18,
            5.64,
            5.08,
            4.54,
            3.99,
            3.43,
            2.87,
            2.3,
            1.79,
            1.22,
            0.68,
            0.07,
            -0.53,
            -1.16,
            -1.77,
            -2.41,
            -3.0,
            -3.62,
            -4.24,
            -4.87,
            -5.52,
            -6.09,
            -6.68,
            -7.31,
            -8.0,
            -8.63,
            -9.26,
            -9.86,
            -10.53,
            -11.14,
            -11.8,
            -12.41,
            -13.06,
            -13.77,
            -14.4,
            -15.04,
            -15.72,
            -16.39,
            -16.99,
            -17.67,
            -18.28,
            -18.96,
            -19.66,
            -20.34,
            -21.06,
            -21.58,
            -22.23,
            -22.76,
            -23.29,
            -23.96,
            -24.47,
            -24.97,
            -25.63,
            -26.13,
            -26.65,
            -27.19,
            -27.88,
            -28.63,
            -29.14,
            -29.91,
            -30.63,
            -31.37,
            -31.88,
            -32.38,
            -33.02,
            -33.6,
            -34.32,
            -35.02,
            -35.52,
            -35.98,
            -36.36,
            -36.2,
            -35.96,
            -35.65,
            -35.45,
            -35.15,
            -34.81,
            -34.5,
            -34.24,
            -33.98,
            -33.74,
            -33.52,
            -33.3,
            -32.94,
            -32.79,
            -32.48,
            -32.23,
            -32.0,
            -31.7,
            -31.46,
            -31.14,
            -30.9,
            -30.56,
            -30.24,
            -29.94,
            -29.66,
            -29.34,
            -28.94,
            -28.58,
            -28.17,
            -27.73,
            -27.35,
            -26.96,
            -26.49,
            -25.88,
            -25.34,
            -24.83,
            -24.27,
            -23.66,
            -23.15,
            -22.53,
            -21.99,
            -21.43,
            -20.84,
            -20.2,
            -19.68,
            -19.1,
            -18.59,
            -17.94,
            -17.32,
            -16.71,
            -16.2,
            -15.65,
            -15.13,
            -14.59,
            -13.92,
            -13.39,
            -12.89,
            -12.39,
            -11.85,
            -11.27,
            -10.67,
            -10.02,
            -9.38,
            -8.82,
            -8.18,
            -7.68,
            -7.13,
            -6.5,
            -5.99,
            -5.47,
            -4.87,
            -4.28,
            -3.67,
            -2.98,
            -2.34,
            -1.83,
            -1.14,
            -0.64,
            0.01,
            0.64,
            1.15,
            1.8,
            2.45,
            2.96,
            3.47,
            4.15,
            4.82,
            5.32,
            5.87,
            6.51,
            7.05,
            7.57,
            8.11,
            8.62,
            9.28,
            9.83,
            10.35,
            10.87,
            11.42,
            11.96,
            12.49,
            13.01,
            13.55,
            14.12,
            14.65,
            15.21,
            15.75,
            16.3,
            16.84,
            17.41,
            18.0,
            18.55,
            19.12,
            19.71,
            20.27,
            20.87,
            21.44,
            22.03,
            22.56,
            23.16,
            23.76,
            24.32,
            24.83,
            25.36,
            25.92,
            26.47,
            27.01,
            27.55,
            28.08,
            28.61,
            29.14,
            29.68,
            29.85,
            29.93,
            30.45,
            30.97,
            31.58,
            32.15,
            32.75,
            32.82,
            32.62,
            32.48,
            32.19,
            31.94,
            31.72,
            31.43,
            31.17,
            30.87,
            30.59,
            30.33,
            29.99,
            29.71,
            29.4,
            29.14,
            28.81,
            28.4,
            28.05,
            27.68,
            27.3,
            26.9,
            26.51,
            26.09,
            25.7,
            25.29,
            24.87,
            24.47,
            23.81,
            23.12,
            22.42,
            21.91,
            21.17,
            20.47,
            19.73,
            19.03,
            18.29,
            17.77,
            17.25,
            16.53,
            15.8,
            15.25,
            14.47,
            13.76,
            13.25,
            12.72,
            12.21,
            11.43,
            10.68,
            10.12,
            9.35,
            8.8,
            8.25,
            7.75,
            7.21,
            6.69,
            6.11,
            5.61,
            5.08,
            4.57,
            4.02,
            3.49,
            2.97,
            2.41,
            1.89,
            1.38,
            0.82,
            0.28,
            -0.25,
            -0.79,
            -1.34,
            -1.87,
            -2.41,
            -2.95,
            -3.48,
            -4.03,
            -4.58,
            -5.1,
            -5.64,
            -6.21,
            -6.79,
            -7.34,
            -7.87,
            -8.41,
            -9.0,
            -9.51,
            -10.04,
            -10.61,
            -11.16,
            -11.72,
            -12.28,
            -12.8,
            -13.38,
            -13.93,
            -14.49,
            -15.04,
            -15.6,
            -16.14,
            -16.72,
            -17.26,
            -17.81,
            -18.35,
            -18.93,
            -19.49,
            -20.08,
            -20.64,
            -21.23,
            -21.78,
            -22.38,
            -22.95,
            -23.51,
            -24.07,
            -24.69,
            -25.29,
            -25.86,
            -26.42,
            -27.05,
            -27.63,
            -28.18,
            -28.77,
            -29.37,
            -29.97,
            -30.61,
            -31.21,
            -31.85,
            -32.44,
            -33.02,
            -33.56,
            -34.12,
            -34.67,
            -35.18,
            -35.7,
            -36.24,
            -36.5,
            -36.19,
            -35.89,
            -35.63,
            -35.33,
            -34.92,
            -34.75,
            -34.59,
            -34.29,
            -33.94,
            -33.6,
            -33.22,
            -32.85,
            -32.56,
            -32.12,
            -31.76,
            -31.49,
            -31.14,
            -30.74,
            -30.42,
            -30.06,
            -29.55,
            -29.16,
            -28.76,
            -28.35,
            -27.98,
            -27.56,
            -26.98,
            -26.44,
            -25.86,
            -25.29,
            -24.72,
            -24.01,
            -23.5,
            -22.91,
            -22.35,
            -21.76,
            -21.19,
            -20.55,
            -20.02,
            -19.42,
            -18.82,
            -18.21,
            -17.57,
            -16.95,
            -16.33,
            -15.64,
            -15.05,
            -14.55,
            -13.9,
            -13.23,
            -12.73,
            -12.09,
            -11.59,
            -10.91,
            -10.19,
            -9.52,
            -8.82,
            -8.13,
            -7.42,
            -6.73,
            -6.03,
            -5.31,
            -4.65,
            -3.95,
            -3.29,
            -2.55,
            -2.02,
            -1.52,
            -0.74,
            -0.05,
            0.69,
            1.44,
            1.94,
            2.68,
            3.46,
            4.18,
            4.91,
            5.67,
            6.39,
            6.96,
            7.71,
            8.23,
            8.74,
            9.25,
            10.0,
            10.76,
            11.45,
            11.97,
            12.5,
            13.26,
            13.78,
            14.3,
            15.03,
            15.58,
            16.09,
            16.59,
            17.11,
            17.67,
            18.17,
            18.74,
            19.27,
            19.81,
            20.57,
            21.11,
            21.71,
            22.29,
            22.94,
            23.53,
            24.18,
            24.85,
            25.56,
            26.21,
            26.79,
            27.41,
            28.07,
            28.78,
            29.48,
            30.1,
            30.65,
            31.22,
            31.86,
            32.41,
            32.91,
            32.96,
            33.69,
            33.69,
            33.73,
            33.55,
            33.42,
            33.14,
            32.81,
            32.49,
            32.09,
            31.76,
            31.41,
            31.04,
            30.64,
            30.29,
            29.92,
            29.55,
            29.18,
            28.79,
            28.43,
            28.04,
            27.43,
            26.83,
            26.15,
            25.57,
            24.93,
            24.28,
            23.63,
            22.98,
            22.35,
            21.83,
            21.15,
            20.44,
            19.82,
            19.16,
            18.58,
            18.04,
            17.42,
            16.76,
            16.07,
            15.49,
            14.93,
            14.43,
            13.85,
            13.15,
            12.65,
            11.87,
            11.36,
            10.68,
            9.96,
            9.39,
            8.87,
            8.2,
            7.58,
            6.95,
            6.26,
            5.56,
            4.87,
            4.15,
            3.47,
            2.73,
            2.09,
            1.34,
            0.61,
            -0.07,
            -0.73,
            -1.44,
            -1.94,
            -2.62,
            -3.34,
            -4.09,
            -4.79,
            -5.45,
            -6.17,
            -6.85,
            -7.6,
            -8.32,
            -9.0,
            -9.5,
            -10.19,
            -10.93,
            -11.63,
            -12.36,
            -13.05,
            -13.56,
            -14.2,
            -14.72,
            -15.45,
            -16.14,
            -16.85,
            -17.37,
            -18.06,
            -18.82,
            -19.48,
            -19.92,
            -20.33,
            -20.83,
            -20.91,
            -21.42,
            -21.74,
            -21.76,
            -22.14,
            -22.17,
            -22.15,
            -22.16,
            -22.17,
            -22.06,
            -21.67,
            -21.37
        ],
        "force": [
            1.125697,
            2.339685,
            3.641963,
            4.85595,
            5.981645,
            7.23978,
            8.36548,
            9.579465,
            10.81553,
            11.91915,
            13.11106,
            14.25883,
            15.4066,
            16.51023,
            17.81251,
            19.11478,
            20.28463,
            21.41032,
            22.62432,
            23.8383,
            24.98607,
            26.26628,
            27.41405,
            28.58389,
            29.79787,
            31.01186,
            32.31414,
            33.66056,
            35.02906,
            36.37548,
            37.78812,
            38.93589,
            40.39267,
            41.80531,
            43.2621,
            44.69681,
            46.13152,
            47.30137,
            48.47121,
            49.75142,
            51.00955,
            52.28975,
            53.50375,
            54.7398,
            55.99795,
            57.234,
            58.5142,
            59.75025,
            60.9863,
            62.2003,
            63.52465,
            64.80485,
            66.0409,
            67.1666,
            68.4468,
            69.5946,
            70.7865,
            71.9784,
            73.41315,
            74.5609,
            75.97355,
            77.2979,
            78.6664,
            79.99075,
            81.27095,
            82.55115,
            83.8534,
            85.04535,
            86.2814,
            87.4954,
            88.73145,
            89.8351,
            91.0049,
            92.17475,
            93.30045,
            94.42615,
            95.70635,
            97.0528,
            98.3109,
            99.5249,
            100.8051,
            101.975,
            103.1889,
            104.3588,
            105.4845,
            106.853,
            108.0228,
            109.2589,
            110.5611,
            111.7089,
            112.8126,
            113.9603,
            115.1523,
            116.3,
            117.4477,
            118.6397,
            119.7654,
            120.8911,
            122.1713,
            123.297,
            124.4669,
            125.5925,
            126.6962,
            128.1308,
            129.3448,
            130.4926,
            131.7066,
            132.8103,
            134.0463,
            135.2603,
            136.4742,
            137.5779,
            137.5116,
            135.2382,
            134.0463,
            132.7661,
            128.7047,
            115.0198,
            110.7157,
            109.5238,
            108.1773,
            106.9413,
            105.8376,
            104.6678,
            103.4538,
            102.0191,
            100.7389,
            99.48075,
            98.1785,
            96.85415,
            95.61805,
            94.4041,
            93.14595,
            91.93195,
            90.6959,
            89.45985,
            88.24585,
            86.9436,
            85.75165,
            84.53765,
            83.3016,
            82.1097,
            80.8295,
            79.57135,
            78.4236,
            76.9668,
            75.8632,
            74.20775,
            72.5523,
            71.00725,
            69.9036,
            68.35855,
            67.2549,
            65.6436,
            64.07645,
            62.48725,
            60.89805,
            59.3309,
            57.7196,
            56.1083,
            54.5853,
            52.92985,
            51.34065,
            49.79556,
            48.60365,
            47.50002,
            46.04324,
            44.47609,
            43.0193,
            41.4963,
            39.99537,
            38.56066,
            37.21423,
            36.02232,
            34.63175,
            33.28533,
            32.0272,
            30.9015,
            29.6213,
            28.36316,
            27.03881,
            25.82483,
            24.63291,
            23.33064,
            22.02835,
            20.7923,
            19.62245,
            18.51883,
            17.30484,
            16.15707,
            15.0093,
            13.77324,
            12.62547,
            11.49977,
            9.91055,
            8.542055,
            7.35014,
            6.202375,
            5.01046,
            3.88476,
            2.6487,
            1.169842,
            -0.309015,
            -1.655437,
            -3.00186,
            -4.282065,
            -5.47398,
            -6.643825,
            -7.83574,
            -9.049725,
            -10.30786,
            -11.61014,
            -13.04484,
            -14.50163,
            -16.06878,
            -17.19448,
            -18.7837,
            -19.88733,
            -21.0351,
            -22.16079,
            -23.70587,
            -24.80949,
            -26.487,
            -27.59063,
            -29.20192,
            -30.87943,
            -32.57901,
            -33.70471,
            -34.85248,
            -36.00025,
            -37.21423,
            -38.38408,
            -39.66428,
            -40.76791,
            -41.8936,
            -43.10759,
            -44.27744,
            -45.49142,
            -46.63919,
            -47.78696,
            -49.06717,
            -50.19285,
            -51.47305,
            -52.59875,
            -53.81275,
            -54.93845,
            -56.06415,
            -57.7196,
            -58.86735,
            -60.5007,
            -62.0458,
            -63.52465,
            -64.80485,
            -66.10715,
            -67.63015,
            -69.1973,
            -70.6982,
            -72.13295,
            -73.5235,
            -74.91405,
            -76.19425,
            -77.5186,
            -78.84295,
            -80.14525,
            -81.49165,
            -82.70565,
            -83.9638,
            -85.11155,
            -86.30345,
            -87.53955,
            -88.6873,
            -89.9013,
            -91.07115,
            -92.2189,
            -93.3446,
            -94.84555,
            -95.97125,
            -97.3618,
            -98.77445,
            -100.165,
            -101.5115,
            -102.8799,
            -104.1601,
            -105.4183,
            -106.6543,
            -107.8463,
            -109.1043,
            -110.4287,
            -111.5323,
            -112.6581,
            -113.9603,
            -115.2185,
            -116.4545,
            -117.7126,
            -118.8604,
            -120.0524,
            -121.2001,
            -122.3258,
            -122.4583,
            -123.6943,
            -124.8862,
            -126.1223,
            -127.2921,
            -128.5061,
            -129.698,
            -130.7133,
            -131.0886,
            -131.0665,
            -129.698,
            -128.0867,
            -126.9169,
            -125.0186,
            -123.5177,
            -122.2375,
            -116.4545,
            -113.2098,
            -112.0621,
            -110.8039,
            -109.5016,
            -108.3098,
            -107.1841,
            -105.8156,
            -104.425,
            -103.0565,
            -101.7763,
            -100.3636,
            -99.23795,
            -98.04605,
            -96.76585,
            -95.4415,
            -94.11715,
            -92.83695,
            -91.53465,
            -90.25445,
            -88.97425,
            -87.67195,
            -86.39175,
            -85.0674,
            -83.83135,
            -82.5732,
            -81.293,
            -80.0128,
            -78.7326,
            -77.47445,
            -76.19425,
            -75.00235,
            -73.7442,
            -72.50815,
            -71.29415,
            -69.96985,
            -68.8,
            -67.5198,
            -66.32785,
            -65.04765,
            -63.85575,
            -62.64175,
            -61.3395,
            -60.1255,
            -58.93355,
            -57.67545,
            -56.46145,
            -55.3137,
            -54.0997,
            -52.99605,
            -51.8483,
            -50.6564,
            -49.55276,
            -48.38292,
            -47.16893,
            -45.86665,
            -44.52023,
            -43.08552,
            -41.62873,
            -40.50304,
            -39.37734,
            -38.25164,
            -37.12595,
            -35.97818,
            -34.85248,
            -33.70471,
            -32.51279,
            -31.29881,
            -30.10689,
            -28.98119,
            -27.74513,
            -26.57529,
            -25.40545,
            -24.21354,
            -22.93332,
            -21.78555,
            -20.52743,
            -19.31344,
            -18.09945,
            -16.81924,
            -15.56111,
            -14.25883,
            -13.02277,
            -11.76464,
            -10.46237,
            -9.20423,
            -7.968175,
            -6.687965,
            -5.407765,
            -4.14963,
            -2.803207,
            -1.567147,
            -0.44145,
            0.662175,
            1.7658,
            2.869425,
            4.23792,
            5.58434,
            6.86455,
            8.166825,
            9.469105,
            10.72723,
            12.02951,
            13.22143,
            14.3692,
            15.49489,
            16.59852,
            18.03323,
            19.26929,
            20.5495,
            21.6752,
            23.02162,
            24.39011,
            25.6041,
            26.8843,
            28.07622,
            29.35642,
            30.70285,
            31.85062,
            33.28533,
            34.83041,
            36.37548,
            37.7219,
            39.11247,
            40.54718,
            42.07019,
            43.57111,
            45.04998,
            46.50676,
            48.09598,
            49.61898,
            51.18615,
            52.665,
            54.2542,
            55.7772,
            57.27815,
            58.7349,
            60.2138,
            61.53815,
            62.8625,
            64.18685,
            65.46705,
            66.72515,
            68.00535,
            69.1973,
            70.34505,
            71.77975,
            73.23655,
            74.6271,
            75.9294,
            77.23165,
            78.55605,
            79.7921,
            80.93985,
            82.06555,
            83.19125,
            84.2949,
            85.6192,
            86.89945,
            88.15755,
            89.3936,
            90.65175,
            91.93195,
            93.07975,
            91.95405,
            94.51445,
            95.64015,
            96.7879,
            97.89155,
            98.92895,
            99.65735,
            100.2533,
            100.4078,
            100.165,
            99.7677,
            99.1055,
            98.28885,
            96.92035,
            95.5739,
            94.27165,
            93.14595,
            91.95405,
            90.6297,
            89.52605,
            88.40035,
            87.05395,
            85.83995,
            84.62595,
            83.34575,
            82.1097,
            80.93985,
            79.77,
            78.5119,
            77.3641,
            76.21635,
            74.93615,
            73.65595,
            72.464,
            71.16175,
            69.88155,
            68.6896,
            67.54185,
            66.34995,
            65.0918,
            64.07645,
            62.8625,
            61.75885,
            60.63315,
            59.41915,
            58.13895,
            56.9691,
            55.4682,
            54.14385,
            52.7533,
            51.64965,
            50.52395,
            49.13338,
            47.98561,
            46.63919,
            45.5135,
            44.3878,
            43.10759,
            41.67288,
            40.3706,
            39.04625,
            37.7219,
            36.4417,
            35.18356,
            33.96958,
            32.84388,
            31.65196,
            30.52627,
            29.24607,
            27.87757,
            26.57529,
            25.31716,
            24.10317,
            22.9554,
            21.69727,
            20.52743,
            19.33551,
            18.14359,
            17.01789,
            15.87013,
            14.65614,
            13.53044,
            12.38267,
            11.10247,
            9.99884,
            8.85107,
            7.482575,
            6.06994,
            4.85595,
            3.641963,
            2.427975,
            1.280205,
            0.1545075,
            -0.97119,
            -2.185178,
            -3.310875,
            -4.59108,
            -5.782995,
            -7.019055,
            -8.343405,
            -9.55739,
            -10.70516,
            -11.78671,
            -12.75791,
            -13.66288,
            -14.54578,
            -15.31831,
            -16.00256,
            -16.79717,
            -17.37106,
            -17.96701,
            -18.45261,
            -18.87199,
            -19.31344,
            -19.8211,
            -20.15219,
            -20.35085,
            -20.99095,
            -21.71934,
            -22.58017,
            -23.44099,
            -24.65498,
            -25.89104,
            -26.99467,
            -28.36316,
            -29.55507,
            -30.70285,
            -32.07134,
            -33.41777,
            -34.80833,
            -35.97818,
            -37.12595,
            -38.38408,
            -39.55392,
            -40.81205,
            -42.09226,
            -43.37246,
            -44.5423,
            -45.82251,
            -47.16893,
            -48.51535,
            -49.86178,
            -51.23025,
            -52.5767,
            -53.9452,
            -55.33575,
            -56.6822,
            -58.16105,
            -59.4854,
            -60.87595,
            -62.2665,
            -63.635,
            -65.04765,
            -66.34995,
            -67.69635,
            -69.0428,
            -70.3892,
            -71.62525,
            -72.90545,
            -74.1636,
            -75.3776,
            -76.61365,
            -77.80555,
            -78.93125,
            -80.38805,
            -81.49165,
            -82.8381,
            -84.2728,
            -85.4868,
            -86.78905,
            -88.00305,
            -89.19495,
            -90.32065,
            -91.68915,
            -92.6162,
            -93.3667,
            -94.18335,
            -94.4703,
            -94.18335,
            -93.2563,
            -92.83695,
            -92.50585,
            -91.84365,
            -90.32065,
            -88.97425,
            -87.51745,
            -86.01655,
            -84.7584,
            -83.61065,
            -82.15385,
            -80.87365,
            -79.32855,
            -77.8497,
            -76.5695,
            -75.3776,
            -74.1636,
            -73.1041,
            -71.89015,
            -70.7865,
            -69.70495,
            -68.57925,
            -67.38735,
            -66.4603,
            -65.22425,
            -64.2972,
            -63.0832,
            -62.08995,
            -61.03045,
            -59.77235,
            -58.77905,
            -57.89615,
            -56.7484,
            -55.8655,
            -54.9826,
            -54.188,
            -53.3713,
            -52.9078,
            -52.06905,
            -51.6055,
            -50.76675,
            -49.92799,
            -49.17753,
            -48.36084,
            -47.58831,
            -46.92614,
            -46.04324,
            -45.33691,
            -44.12293,
            -42.71029,
            -41.40801,
            -40.06159,
            -38.8476,
            -37.58947,
            -36.37548,
            -35.18356,
            -34.03579,
            -32.6673,
            -31.5416,
            -30.08482,
            -28.67218,
            -27.25953,
            -25.86897,
            -24.7212,
            -23.48514,
            -22.3153,
            -21.0351,
            -19.84318,
            -18.56297,
            -17.28277,
            -16.06878,
            -14.7665,
            -13.50837,
            -12.22816,
            -10.9921,
            -9.822265,
            -8.586205,
            -7.39429,
            -6.202375,
            -5.054605,
            -3.862688,
            -2.714917,
            -1.567147,
            -0.4635225,
            0.8608275,
            2.185178,
            3.5316,
            4.745587,
            5.871285,
            6.97491,
            8.29926,
            9.53532,
            10.70516,
            11.78671,
            12.69169,
            13.90567,
            14.5237,
            15.47282,
            15.93635,
            16.70889,
            17.30484,
            17.96701,
            18.36432,
            18.7837,
            19.15893,
            19.49002,
            19.77696,
            20.08598,
            20.37292,
            20.39499,
            20.43913,
            20.5495,
            20.704,
            20.81437,
            21.07924,
            21.38825,
            21.74142,
            22.09457,
            22.58017,
            23.08784,
            23.63965,
            24.30182,
            25.07436,
            25.73653,
            26.57529,
            27.39197,
            28.31902,
            29.15777,
            30.2614,
            31.49746,
            32.44658,
            33.52813,
            34.36688,
            35.40429,
            36.4417,
            37.50118,
            38.47237,
            39.53185,
            40.48096,
            41.43008,
            42.18055,
            42.97516,
            43.70355,
            44.47609,
            45.00583,
            45.73422,
            46.21981,
            46.59504,
            47.10271,
            47.56624,
            47.9194,
            48.29463,
            48.66986,
            48.91266,
            49.15546,
            49.4424,
            49.53069,
            49.64105,
            49.6852,
            49.6852,
            49.64105,
            49.53069,
            49.30996,
            49.08924,
            48.82437,
            48.60365,
            48.25048,
            47.85318,
            47.45588,
            47.0365,
            46.66127,
            46.21981,
            45.75629,
            45.2707,
            44.74096,
            44.32158,
            43.79184,
            43.30624,
            42.79858,
            42.33506,
            41.82739,
            41.3418,
            40.81205,
            40.30439,
            39.79672,
            39.33319,
            38.82552,
            38.40615,
            37.94262,
            37.52325,
            37.05973,
            36.22097,
            35.38221,
            34.34481,
            32.93217,
            31.5416,
            30.34969,
            29.04741,
            27.54648,
            26.04555,
            24.78742,
            23.63965,
            22.33737,
            21.21167,
            19.99768,
            18.67333,
            17.50349,
            16.00256,
            14.70028,
            13.53044,
            12.38267,
            11.27905,
            9.9547,
            8.519985,
            6.79833,
            5.429835,
            4.259993,
            3.156368,
            1.7658,
            0.485595,
            -0.7283925,
            -2.163105,
            -3.597817,
            -4.922167,
            -6.11408,
            -7.21771,
            -8.608275,
            -9.88848,
            -10.92589,
            -11.83086,
            -12.66961,
            -13.55252,
            -14.25883,
            -14.92101,
            -15.60526,
            -16.20122,
            -16.75303,
            -17.34899,
            -17.85666,
            -18.27603,
            -18.71748,
            -19.13686,
            -19.53416,
            -19.97561,
            -20.37292,
            -20.77022,
            -21.1896,
            -21.5869,
            -22.00628,
            -22.05043,
            -22.24908,
            -22.5581,
            -22.84504,
            -23.17612,
            -23.46307,
            -23.90452,
            -24.21354,
            -24.65498,
            -25.05229,
            -25.55996,
            -25.97933,
            -26.46493,
            -26.92845,
            -27.45819,
            -27.92171,
            -28.38523,
            -28.8929,
            -29.44472,
            -30.0186,
            -30.46005,
            -30.98979,
            -31.60782,
            -32.04927,
            -32.51279,
            -33.04253,
            -33.5502,
            -33.88129,
            -34.34481,
            -34.80833,
            -35.316,
            -35.82367,
            -36.04439,
            -36.46377,
            -36.66242,
            -36.88315,
            -37.14802,
            -37.47911,
            -37.58947,
            -37.67775,
            -37.9647,
            -38.11921,
            -38.25164,
            -38.33993,
            -38.47237,
            -38.56066,
            -38.62688,
            -38.58273,
            -38.56066,
            -38.53859,
            -38.42823,
            -38.31786,
            -38.11921,
            -37.9647,
            -37.65569,
            -37.50118,
            -37.43496,
            -36.88315,
            -36.66242,
            -36.4417,
            -36.00025,
            -35.71331,
            -35.44844,
            -35.16149,
            -34.63175,
            -34.16823,
            -33.81507,
            -33.35154,
            -32.82181,
            -32.35828,
            -32.07134,
            -31.69611,
            -31.25466,
            -30.94564,
            -30.48212,
            -30.04067,
            -29.7758,
            -28.60596,
            -27.39197,
            -26.11176,
            -24.91986,
            -23.81623,
            -22.7126,
            -21.3441,
            -20.24048,
            -18.84991,
            -17.63593,
            -16.44401,
            -15.2521,
            -14.08226,
            -12.89034,
            -11.67636,
            -10.46237,
            -9.29252,
            -8.166825,
            -7.019055,
            -5.893355,
            -4.76766,
            -3.310875,
            -2.20725,
            -0.7725375,
            0.485595,
            1.58922,
            2.82528,
            4.06134,
            5.49605,
            6.86455,
            8.321335,
            9.64568,
            10.97003,
            12.18402,
            13.53044,
            14.50163,
            15.23003,
            15.69355,
            16.62059,
            17.96701,
            18.89406,
            19.46795,
            19.93147,
            20.46121,
            20.99095,
            21.52069,
            21.96214,
            22.42566,
            22.93332,
            23.33064,
            23.77209,
            24.21354,
            24.54462,
            24.91986,
            25.07436,
            25.22886,
            25.33923,
            25.42752,
            25.49374,
            25.67031,
            25.75861,
            25.91311,
            26.11176,
            26.28835,
            26.487,
            26.66358,
            26.92845,
            27.17125,
            27.30368,
            27.63477,
            27.83342,
            28.07622,
            28.38523,
            28.53975,
            28.84875,
            29.15777,
            29.533,
            29.75373,
            30.04067,
            30.2614,
            30.57041,
            30.87943,
            31.10015,
            31.34295,
            31.69611,
            31.85062,
            32.07134,
            32.31414,
            32.51279,
            32.6673,
            32.82181,
            32.99839,
            33.08668,
            33.21911,
            33.28533,
            33.37362,
            33.43984,
            33.57227,
            33.59435,
            33.52813,
            33.50605,
            33.43984,
            33.37362,
            33.3074,
            33.19704,
            33.13082,
            32.93217,
            32.6673,
            32.55694,
            32.31414,
            32.0272,
            31.7844,
            31.56367,
            31.25466,
            30.9015,
            30.57041,
            30.2614,
            29.84202,
            29.51093,
            29.1357,
            28.76047,
            28.38523,
            27.70098,
            27.23746,
            26.86223,
            26.55322,
            26.17798,
            25.82483,
            25.51581,
            25.20679,
            24.89778,
            24.58876,
            24.23561,
            23.99281,
            21.74142,
            23.8383,
            23.55136,
            23.26442,
            23.04369,
            22.73467,
            22.29322,
            20.99095,
            19.75488,
            18.65126,
            17.15034,
            15.93635,
            14.72236,
            13.37593,
            12.13988,
            10.50651,
            9.35874,
            8.166825,
            6.71004,
            5.341545,
            4.14963,
            3.023932,
            1.611292,
            -0.08829,
            -1.523003,
            -3.023932,
            -4.50279,
            -5.959575,
            -7.305995,
            -8.65242,
            -9.866405,
            -11.08039,
            -12.22816,
            -13.35386,
            -14.7665,
            -16.00256,
            -16.84132,
            -17.37106,
            -18.27603,
            -19.37966,
            -20.37292,
            -21.12338,
            -21.85177,
            -22.27115,
            -22.7126,
            -23.37477,
            -23.97074,
            -24.39011,
            -24.98607,
            -25.44959,
            -25.86897,
            -26.2442,
            -26.55322,
            -27.06088,
            -27.39197,
            -27.54648,
            -27.6127,
            -27.67892,
            -27.7672,
            -27.89964,
            -27.92171,
            -28.05415,
            -28.14244,
            -28.23073,
            -28.36316,
            -28.45145,
            -28.53975,
            -28.6501,
            -28.76047,
            -28.87083,
            -28.8929,
            -28.98119,
            -29.11363,
            -29.1357,
            -29.22399,
            -29.33435,
            -29.42264,
            -29.48886,
            -29.51093,
            -29.57715,
            -29.59922,
            -29.66544,
            -29.70959,
            -29.70959,
            -29.73166,
            -29.73166,
            -29.7758,
            -29.7758,
            -29.73166,
            -29.73166,
            -29.7758,
            -29.73166,
            -29.70959,
            -29.66544,
            -29.57715,
            -29.55507,
            -29.44472,
            -29.44472,
            -29.40057,
            -29.29021,
            -29.20192,
            -29.1357,
            -29.04741,
            -28.91497,
            -28.82668,
            -28.6501,
            -28.51767,
            -28.42938,
            -28.36316,
            -28.16451,
            -27.98793,
            -27.74513,
            -27.54648,
            -27.32575,
            -27.06088,
            -26.84016,
            -26.53115,
            -26.20006,
            -25.89104,
            -25.55996,
            -25.25094,
            -24.83156,
            -24.52254,
            -24.14731,
            -23.68379,
            -23.30856,
            -22.91125,
            -22.53602,
            -22.09457,
            -21.71934,
            -21.52069,
            -20.90265,
            -20.43913,
            -20.15219,
            -19.6666,
            -18.84991,
            -18.47468,
            -18.12152,
            -17.59178,
            -16.135,
            -14.81065,
            -13.42008,
            -12.20609,
            -10.63894,
            -9.071795,
            -7.747445,
            -6.511385,
            -4.900095,
            -3.332947,
            -1.809945,
            -0.35316,
            0.97119,
            2.361758,
            3.950978,
            5.363615,
            6.62175,
            7.924025,
            9.16009,
            10.48444,
            11.61014,
            13.22143,
            14.58992,
            15.69355,
            16.84132,
            17.98909,
            19.24722,
            20.43913,
            21.12338,
            21.76348,
            22.29322,
            22.93332,
            23.61757,
            24.08109,
            24.61084,
            25.11851,
            25.6041,
            26.13384,
            26.55322,
            26.99467,
            27.45819,
            27.8555,
            28.2528,
            28.62803,
            29.04741,
            29.35642,
            29.68752,
            29.95238,
            30.0186,
            30.06274,
            30.0186,
            29.95238,
            29.97445,
            29.90824,
            29.88617,
            29.86409,
            29.81995,
            29.73166,
            29.73166,
            29.66544,
            29.64337,
            29.57715,
            29.59922,
            29.59922,
            29.51093,
            29.533,
            29.48886,
            29.42264,
            29.3785,
            29.35642,
            29.22399,
            29.15777,
            29.04741,
            28.98119,
            28.8929,
            28.7384,
            28.53975,
            28.42938,
            28.2528,
            27.94378,
            27.83342,
            27.6127,
            27.39197,
            27.17125,
            27.01674,
            26.42078,
            26.28835,
            25.91311,
            25.64824,
            25.38338,
            24.98607,
            24.61084,
            24.32389,
            23.77209,
            23.41892,
            23.04369,
            22.73467,
            22.33737,
            21.98421,
            21.5869,
            21.12338,
            20.65986,
            20.21841,
            19.53416,
            19.09271,
            18.65126,
            18.18774,
            17.74629,
            17.30484,
            16.88546,
            16.37779,
            15.84805,
            15.27417,
            14.8548,
            14.3692,
            13.8836,
            13.35386,
            12.89034,
            12.40475,
            12.02951,
            11.63221,
            11.08039,
            10.352,
            10.13128,
            8.983505,
            7.83574,
            6.35688,
            4.32621,
            3.023932,
            1.876163,
            0.0220725,
            -1.346423,
            -2.847353,
            -4.282065,
            -5.716775,
            -7.15149,
            -8.519985,
            -9.822265,
            -11.10247,
            -12.42682,
            -13.70702,
            -14.8548,
            -16.04671,
            -17.19448,
            -18.34225,
            -19.84318,
            -21.25582,
            -22.53602,
            -23.75001,
            -24.96399,
            -26.33249,
            -27.54648,
            -28.7384,
            -29.44472,
            -29.75373,
            -30.28347,
            -30.83529,
            -31.25466,
            -31.56367,
            -31.91684,
            -32.22585,
            -32.51279,
            -32.9101,
            -33.10875,
            -33.41777,
            -33.48398,
            -33.63849,
            -33.81507,
            -33.94751,
            -34.03579,
            -34.23444,
            -34.1903,
            -34.23444,
            -34.16823,
            -34.12408,
            -33.96958,
            -33.90336,
            -33.72678,
            -33.50605,
            -33.28533,
            -33.10875,
            -32.88802,
            -32.60108,
            -32.31414,
            -32.07134,
            -31.76233,
            -31.51953,
            -31.23259,
            -30.85736,
            -30.61456,
            -30.28347,
            -30.10689,
            -29.75373,
            -29.48886,
            -29.35642,
            -28.84875,
            -28.47352,
            -28.27487,
            -27.83342,
            -27.48026,
            -27.08296,
            -26.68565,
            -26.39871,
            -25.93519,
            -25.55996,
            -25.07436,
            -24.58876,
            -24.12524,
            -23.70587,
            -23.22027,
            -22.86711,
            -22.33737,
            -21.71934,
            -21.1896,
            -20.74815,
            -20.15219,
            -19.09271,
            -17.28277,
            -14.81065,
            -13.33179,
            -12.66961,
            -11.56599,
            -11.01418,
            -7.7033,
            -6.577605,
            -5.407765,
            -4.282065,
            -3.112222,
            -1.94238,
            -0.3752325,
            1.302277,
            2.516265,
            -0.220725
        ]
    }
}